# Argon glow discharge
#
#    Spectral data Copyright (c) 1998-2009 by I.N. Galidakis          
#                                                                     
#    Extracted from page:                                             
#    <http://ioannis.virtualcomposer2000.com/spectroscope/amici.html> 
#                                                                     
#    This data is distributed in the hope that it will be useful,     
#    but WITHOUT ANY WARRANTY; without even the implied warranty of   
#    MERCHANTABILITY or FITNESS FOR A PARTICULAR PURPOSE.  See the    
#    CCL 3.0 Creative Commons License 3.0 for more details.           
#                                                                     
#    You should have received a copy of the CCL 3.0                   
#    along with this program.  If not, see:                           
#    <http://creativecommons.org/licenses/by/3.0/>.                   
#
404.756989	0.575163
404.901001	0.585922
405.054993	0.593062
405.221008	0.615334
405.398010	0.639367
405.584991	0.647763
405.782013	0.622423
405.989990	0.528708
406.208008	0.438763
406.436005	0.418502
406.674011	0.355053
406.920990	0.292559
407.177002	0.258673
407.442993	0.249170
407.717010	0.257768
408.000000	0.265007
408.291992	0.275566
408.592010	0.293916
408.901001	0.302514
409.217987	0.292710
409.541992	0.353193
409.875000	0.432076
410.214996	0.502765
410.562988	0.538109
410.917999	0.559577
411.279999	0.572901
411.649994	0.574057
412.026001	0.542282
412.408997	0.503821
412.799011	0.536752
413.195007	0.600352
413.596985	0.598692
414.006012	0.551483
414.420990	0.535998
414.842010	0.551282
415.269012	0.576018
415.701996	0.590849
416.140015	0.596078
416.584015	0.599799
417.032990	0.657517
417.487000	0.680795
417.946991	0.592659
418.411987	0.536702
418.881989	0.554148
419.355988	0.585118
419.835999	0.602463
420.320007	0.610407
420.808990	0.617546
421.302002	0.616993
421.799988	0.610709
422.302002	0.591503
422.808990	0.613122
423.319000	0.636853
423.834015	0.660785
424.352997	0.660483
424.876007	0.648919
425.402008	0.642484
425.933014	0.604173
426.467010	0.589341
427.005005	0.619608
427.546997	0.638411
428.092010	0.636199
428.640991	0.635747
429.194000	0.633032
429.750000	0.623278
430.308990	0.637909
430.872009	0.661237
431.437988	0.694420
432.006989	0.717999
432.579010	0.659276
433.154999	0.529764
433.734009	0.525641
434.316010	0.544645
434.901001	0.583057
435.489990	0.574962
436.080994	0.533987
436.675995	0.517898
437.273987	0.540673
437.873993	0.573102
438.477997	0.573756
439.084991	0.560684
439.695007	0.577325
440.307007	0.601860
440.923004	0.601860
441.541992	0.538310
442.164001	0.539416
442.789001	0.545952
443.416992	0.558270
444.048004	0.583509
444.683014	0.617295
445.320007	0.650377
445.959991	0.667371
446.604004	0.648768
447.251007	0.551433
447.901001	0.576772
448.553986	0.609854
449.209991	0.592609
449.869995	0.569130
450.532990	0.590849
451.200012	0.654148
451.869995	0.684867
452.542999	0.664002
453.220001	0.650579
453.901001	0.680393
454.584991	0.687431
455.273010	0.655204
455.964996	0.634691
456.660004	0.619859
457.359009	0.648015
458.062988	0.674209
458.769989	0.631624
459.480988	0.606636
460.196991	0.637607
460.915985	0.634742
461.640015	0.635093
462.368988	0.685018
463.101990	0.712167
463.838989	0.625741
464.580994	0.495274
465.328003	0.539517
466.079987	0.586928
466.835999	0.587079
467.597992	0.563449
468.364990	0.605027
469.136993	0.637909
469.914001	0.585571
470.696991	0.500302
471.484985	0.580493
472.278992	0.674158
473.079010	0.628657
473.885010	0.492911
474.696991	0.496631
475.515015	0.603017
476.338989	0.645903
477.170013	0.539316
478.007996	0.351081
478.851990	0.401458
479.703003	0.518150
480.559998	0.463248
481.424988	0.489794
482.298004	0.591905
483.177002	0.610357
484.063995	0.539567
484.959015	0.512569
485.862000	0.486828
486.773010	0.374510
487.691986	0.268678
488.619995	0.274661
489.554993	0.362092
490.500000	0.430970
491.453003	0.325591
492.415985	0.235948
493.388000	0.281448
494.368988	0.360885
495.359009	0.375867
496.359985	0.283962
497.369995	0.224686
498.390991	0.260684
499.420990	0.304223
500.463013	0.256863
501.515015	0.213927
502.578003	0.176370
503.652008	0.166616
504.737000	0.199849
505.834015	0.266817
506.942993	0.313072
508.062988	0.319457
509.196014	0.317597
510.341003	0.308949
511.498993	0.263198
512.669006	0.247863
513.853027	0.247210
515.049011	0.229261
516.260010	0.231272
517.484009	0.254952
518.721985	0.274258
519.973999	0.311212
521.239990	0.325390
522.521973	0.282806
523.817993	0.234892
525.129028	0.218653
526.455994	0.235948
527.797974	0.255254
529.156982	0.265862
530.531006	0.279889
531.921997	0.299598
533.330017	0.323228
534.755005	0.329915
536.197021	0.321418
537.656006	0.322624
539.132996	0.312468
540.629028	0.275214
542.142029	0.265912
543.674988	0.292961
545.226013	0.311312
546.796021	0.293715
548.385986	0.270287
549.994995	0.239869
551.625000	0.195727
553.275024	0.175314
554.945984	0.162393
556.637024	0.161538
558.349976	0.188939
560.083984	0.238562
561.841003	0.241579
563.619019	0.248416
565.419983	0.289844
567.244019	0.356159
569.091003	0.434691
570.960999	0.448869
572.854980	0.475415
574.773010	0.491855
576.716003	0.511765
578.682983	0.516340
580.676025	0.518451
582.693970	0.503419
584.737000	0.516893
586.807007	0.551584
588.903015	0.569080
591.026001	0.530568
593.176025	0.487884
595.354004	0.465712
597.559021	0.441830
599.793030	0.418854
602.054993	0.400000
604.346985	0.385671
606.666992	0.385370
609.017029	0.390096
611.398010	0.407742
613.807983	0.421770
616.250000	0.433535
618.721985	0.450830
621.226013	0.463550
623.762024	0.469080
626.330017	0.458673
628.931030	0.446254
631.565002	0.444646
634.232971	0.440624
636.934021	0.428004
639.669983	0.413273
642.440002	0.369130
645.245972	0.323982
648.085999	0.241729
650.963013	0.176823
653.875977	0.112418
656.825989	0.072247
659.812988	0.051232
662.836975	0.044997
665.898987	0.048818
669.000000	0.062242
