# OSRAM HQI-T 400W/Blau Blue colored Metal Halide Lamp with Mercury and indium iodides
#
#    Spectral data Copyright (c) 1998-2009 by I.N. Galidakis          
#                                                                     
#    Extracted from page:                                             
#    <http://ioannis.virtualcomposer2000.com/spectroscope/amici.html> 
#                                                                     
#    This data is distributed in the hope that it will be useful,     
#    but WITHOUT ANY WARRANTY; without even the implied warranty of   
#    MERCHANTABILITY or FITNESS FOR A PARTICULAR PURPOSE.  See the    
#    CCL 3.0 Creative Commons License 3.0 for more details.           
#                                                                     
#    You should have received a copy of the CCL 3.0                   
#    along with this program.  If not, see:                           
#    <http://creativecommons.org/licenses/by/3.0/>.                   
#
404.756989	0.040020
404.901001	0.046657
405.054993	0.056310
405.221008	0.068577
405.398010	0.085319
405.584991	0.146606
405.782013	0.221669
405.989990	0.305229
406.208008	0.250880
406.436005	0.145752
406.674011	0.125892
406.920990	0.130367
407.177002	0.133333
407.442993	0.141579
407.717010	0.165611
408.000000	0.211714
408.291992	0.264253
408.592010	0.298190
408.901001	0.354399
409.217987	0.445752
409.541992	0.503570
409.875000	0.548165
410.214996	0.508145
410.562988	0.516038
410.917999	0.583760
411.279999	0.588788
411.649994	0.582101
412.026001	0.586475
412.408997	0.598391
412.799011	0.594821
413.195007	0.577627
413.596985	0.552891
414.006012	0.526546
414.420990	0.493866
414.842010	0.432127
415.269012	0.398039
415.701996	0.356762
416.140015	0.328105
416.584015	0.305279
417.032990	0.285772
417.487000	0.275314
417.946991	0.265259
418.411987	0.257215
418.881989	0.255908
419.355988	0.253695
419.835999	0.249472
420.320007	0.243087
420.808990	0.240070
421.302002	0.239668
421.799988	0.241026
422.302002	0.245752
422.808990	0.247763
423.319000	0.250025
423.834015	0.248869
424.352997	0.253846
424.876007	0.260935
425.402008	0.261890
425.933014	0.261840
426.467010	0.270739
427.005005	0.269985
427.546997	0.273203
428.092010	0.277828
428.640991	0.285420
429.194000	0.294972
429.750000	0.303117
430.308990	0.309200
430.872009	0.320161
431.437988	0.323781
432.006989	0.327250
432.579010	0.358422
433.154999	0.375918
433.734009	0.406888
434.316010	0.449070
434.901001	0.487381
435.489990	0.501760
436.080994	0.596028
436.675995	0.710508
437.273987	0.554349
437.873993	0.520412
438.477997	0.523027
439.084991	0.523429
439.695007	0.524384
440.307007	0.530920
440.923004	0.532679
441.541992	0.537355
442.164001	0.538813
442.789001	0.544696
443.416992	0.548416
444.048004	0.558119
444.683014	0.562795
445.320007	0.569080
445.959991	0.578331
446.604004	0.581951
447.251007	0.592760
447.901001	0.603921
448.553986	0.598944
449.209991	0.598944
449.869995	0.619105
450.532990	0.621518
451.200012	0.627703
451.869995	0.667773
452.542999	0.621669
453.220001	0.685018
453.901001	0.704727
454.584991	0.679739
455.273010	0.703067
455.964996	0.743791
456.660004	0.712469
457.359009	0.692610
458.062988	0.648064
458.769989	0.618703
459.480988	0.600352
460.196991	0.588738
460.915985	0.576521
461.640015	0.572800
462.368988	0.568175
463.101990	0.565560
463.838989	0.561287
464.580994	0.558371
465.328003	0.550679
466.079987	0.545450
466.835999	0.541730
467.597992	0.527853
468.364990	0.520111
469.136993	0.496179
469.914001	0.472348
470.696991	0.463701
471.484985	0.448919
472.278992	0.443188
473.079010	0.423228
473.885010	0.407994
474.696991	0.403368
475.515015	0.392408
476.338989	0.383912
477.170013	0.376672
478.007996	0.367421
478.851990	0.362846
479.703003	0.364404
480.559998	0.347562
481.424988	0.347763
482.298004	0.337205
483.177002	0.333434
484.063995	0.327049
484.959015	0.317597
485.862000	0.315385
486.773010	0.306787
487.691986	0.299447
488.619995	0.291352
489.554993	0.274862
490.500000	0.269080
491.453003	0.271795
492.415985	0.261488
493.388000	0.253243
494.368988	0.259678
495.359009	0.252841
496.359985	0.254500
497.369995	0.250176
498.390991	0.249221
499.420990	0.242685
500.463013	0.219306
501.515015	0.200151
502.578003	0.192408
503.652008	0.189593
504.737000	0.189693
505.834015	0.193917
506.942993	0.197285
508.062988	0.201910
509.196014	0.208597
510.341003	0.219155
511.498993	0.226647
512.669006	0.240875
513.853027	0.254148
515.049011	0.272147
516.260010	0.288738
517.484009	0.306586
518.721985	0.318301
519.973999	0.329412
521.239990	0.319055
522.521973	0.278029
523.817993	0.247310
525.129028	0.224837
526.455994	0.197235
527.797974	0.182202
529.156982	0.174309
530.531006	0.178733
531.921997	0.178381
533.330017	0.180845
534.755005	0.179487
536.197021	0.170739
537.656006	0.165762
539.132996	0.172097
540.629028	0.166868
542.142029	0.173404
543.674988	0.301609
545.226013	0.536299
546.796021	0.375013
548.385986	0.175515
549.994995	0.159075
551.625000	0.150075
553.275024	0.142584
554.945984	0.135998
556.637024	0.126144
558.349976	0.123731
560.083984	0.120362
561.841003	0.115435
563.619019	0.110809
565.419983	0.113977
567.244019	0.121669
569.091003	0.141931
570.960999	0.160282
572.854980	0.127250
574.773010	0.187682
576.716003	0.378230
578.682983	0.439718
580.676025	0.268577
582.693970	0.210106
584.737000	0.234741
586.807007	0.334439
588.903015	0.496229
591.026001	0.376270
593.176025	0.263399
595.354004	0.253746
597.559021	0.246506
599.793030	0.241227
602.054993	0.227702
604.346985	0.224485
606.666992	0.212066
609.017029	0.202916
611.398010	0.192358
613.807983	0.182956
616.250000	0.174208
618.721985	0.166063
621.226013	0.157617
623.762024	0.149723
626.330017	0.140774
628.931030	0.133987
631.565002	0.125641
634.232971	0.119055
636.934021	0.112670
639.669983	0.102112
642.440002	0.091554
645.245972	0.083459
648.085999	0.072800
650.963013	0.065913
653.875977	0.057567
656.825989	0.051433
659.812988	0.042433
662.836975	0.031574
665.898987	0.028054
669.000000	0.028255
