# Incandescent light 1.2.3 absorbed through blue Cobalt glass
#
#    Spectral data Copyright (c) 1998-2009 by I.N. Galidakis          
#                                                                     
#    Extracted from page:                                             
#    <http://ioannis.virtualcomposer2000.com/spectroscope/amici.html> 
#                                                                     
#    This data is distributed in the hope that it will be useful,     
#    but WITHOUT ANY WARRANTY; without even the implied warranty of   
#    MERCHANTABILITY or FITNESS FOR A PARTICULAR PURPOSE.  See the    
#    CCL 3.0 Creative Commons License 3.0 for more details.           
#                                                                     
#    You should have received a copy of the CCL 3.0                   
#    along with this program.  If not, see:                           
#    <http://creativecommons.org/licenses/by/3.0/>.                   
#
404.756989	0.015083
404.901001	0.015083
405.054993	0.021619
405.221008	0.025943
405.398010	0.041378
405.584991	0.057567
405.782013	0.084817
405.989990	0.113625
406.208008	0.132730
406.436005	0.151936
406.674011	0.192006
406.920990	0.216692
407.177002	0.233434
407.442993	0.258170
407.717010	0.281549
408.000000	0.308899
408.291992	0.333535
408.592010	0.359377
408.901001	0.386978
409.217987	0.412368
409.541992	0.437607
409.875000	0.463650
410.214996	0.485018
410.562988	0.507592
410.917999	0.524434
411.279999	0.532680
411.649994	0.535897
412.026001	0.542131
412.408997	0.547159
412.799011	0.549321
413.195007	0.552690
413.596985	0.556511
414.006012	0.566516
414.420990	0.567572
414.842010	0.573504
415.269012	0.575213
415.701996	0.579889
416.140015	0.582906
416.584015	0.591051
417.032990	0.595776
417.487000	0.599799
417.946991	0.600201
418.411987	0.611513
418.881989	0.609602
419.355988	0.610407
419.835999	0.614731
420.320007	0.617647
420.808990	0.619407
421.302002	0.619809
421.799988	0.620513
422.302002	0.628607
422.808990	0.631574
423.319000	0.633233
423.834015	0.634238
424.352997	0.635847
424.876007	0.639970
425.402008	0.642082
425.933014	0.640976
426.467010	0.645249
427.005005	0.648115
427.546997	0.648869
428.092010	0.651182
428.640991	0.652137
429.194000	0.652439
429.750000	0.654550
430.308990	0.653897
430.872009	0.660383
431.437988	0.660131
432.006989	0.664405
432.579010	0.666617
433.154999	0.671343
433.734009	0.676270
434.316010	0.679639
434.901001	0.680091
435.489990	0.677376
436.080994	0.676672
436.675995	0.683510
437.273987	0.689292
437.873993	0.694370
438.477997	0.696280
439.084991	0.698744
439.695007	0.700453
440.307007	0.711614
440.923004	0.714380
441.541992	0.720765
442.164001	0.728708
442.789001	0.737557
443.416992	0.746204
444.048004	0.753243
444.683014	0.757215
445.320007	0.765862
445.959991	0.774359
446.604004	0.785470
447.251007	0.786676
447.901001	0.783710
448.553986	0.776370
449.209991	0.778280
449.869995	0.775012
450.532990	0.781548
451.200012	0.775616
451.869995	0.774409
452.542999	0.762896
453.220001	0.751634
453.901001	0.734641
454.584991	0.725340
455.273010	0.700252
455.964996	0.668125
456.660004	0.663248
457.359009	0.666667
458.062988	0.664254
458.769989	0.662243
459.480988	0.658371
460.196991	0.657718
460.915985	0.651936
461.640015	0.653947
462.368988	0.650730
463.101990	0.655355
463.838989	0.653897
464.580994	0.661539
465.328003	0.664656
466.079987	0.666617
466.835999	0.668427
467.597992	0.680644
468.364990	0.680644
469.136993	0.678382
469.914001	0.678784
470.696991	0.678231
471.484985	0.678683
472.278992	0.677125
473.079010	0.677175
473.885010	0.672952
474.696991	0.672147
475.515015	0.668125
476.338989	0.666114
477.170013	0.662796
478.007996	0.660684
478.851990	0.658070
479.703003	0.656914
480.559998	0.653645
481.424988	0.653495
482.298004	0.655807
483.177002	0.655455
484.063995	0.656964
484.959015	0.657014
485.862000	0.657316
486.773010	0.655807
487.691986	0.652992
488.619995	0.647562
489.554993	0.642031
490.500000	0.633283
491.453003	0.620160
492.415985	0.603720
493.388000	0.591101
494.368988	0.578482
495.359009	0.558622
496.359985	0.543640
497.369995	0.525943
498.390991	0.512318
499.420990	0.499950
500.463013	0.485621
501.515015	0.472549
502.578003	0.466013
503.652008	0.458271
504.737000	0.448568
505.834015	0.433786
506.942993	0.422725
508.062988	0.414781
509.196014	0.404424
510.341003	0.389442
511.498993	0.375867
512.669006	0.358522
513.853027	0.350377
515.049011	0.340071
516.260010	0.329010
517.484009	0.319507
518.721985	0.313675
519.973999	0.308195
521.239990	0.306687
522.521973	0.308748
523.817993	0.313575
525.129028	0.322072
526.455994	0.332730
527.797974	0.346154
529.156982	0.362544
530.531006	0.374359
531.921997	0.384112
533.330017	0.396581
534.755005	0.401206
536.197021	0.404877
537.656006	0.406737
539.132996	0.402665
540.629028	0.396481
542.142029	0.386878
543.674988	0.379186
545.226013	0.353494
546.796021	0.327451
548.385986	0.285068
549.994995	0.233937
551.625000	0.193213
553.275024	0.165812
554.945984	0.156863
556.637024	0.139065
558.349976	0.119155
560.083984	0.102212
561.841003	0.080191
563.619019	0.070086
565.419983	0.073203
567.244019	0.078130
569.091003	0.085470
570.960999	0.084917
572.854980	0.095525
574.773010	0.098743
576.716003	0.104927
578.682983	0.106536
580.676025	0.108497
582.693970	0.108044
584.737000	0.109553
586.807007	0.109251
588.903015	0.105128
591.026001	0.096933
593.176025	0.086727
595.354004	0.070136
597.559021	0.060332
599.793030	0.054248
602.054993	0.052941
604.346985	0.050679
606.666992	0.052237
609.017029	0.049271
611.398010	0.059829
613.807983	0.079437
616.250000	0.115385
618.721985	0.152036
621.226013	0.194369
623.762024	0.239165
626.330017	0.294017
628.931030	0.323731
631.565002	0.366063
634.232971	0.411161
636.934021	0.454249
639.669983	0.473806
642.440002	0.487883
645.245972	0.499749
648.085999	0.488537
650.963013	0.437003
653.875977	0.388738
656.825989	0.322222
659.812988	0.261539
662.836975	0.208044
665.898987	0.156159
669.000000	0.130216
