# High Pressure Mercury Warm Deluxe light 1.4.3 absorbed through ciel dye #42053
#
#    Spectral data Copyright (c) 1998-2009 by I.N. Galidakis          
#                                                                     
#    Extracted from page:                                             
#    <http://ioannis.virtualcomposer2000.com/spectroscope/amici.html> 
#                                                                     
#    This data is distributed in the hope that it will be useful,     
#    but WITHOUT ANY WARRANTY; without even the implied warranty of   
#    MERCHANTABILITY or FITNESS FOR A PARTICULAR PURPOSE.  See the    
#    CCL 3.0 Creative Commons License 3.0 for more details.           
#                                                                     
#    You should have received a copy of the CCL 3.0                   
#    along with this program.  If not, see:                           
#    <http://creativecommons.org/licenses/by/3.0/>.                   
#
404.756989	0.576823
404.901001	0.666265
405.054993	0.665762
405.221008	0.605631
405.398010	0.579839
405.584991	0.562192
405.782013	0.542986
405.989990	0.501559
406.208008	0.498090
406.436005	0.572700
406.674011	0.641026
406.920990	0.585219
407.177002	0.508698
407.442993	0.459125
407.717010	0.454550
408.000000	0.444193
408.291992	0.446959
408.592010	0.460935
408.901001	0.487833
409.217987	0.481398
409.541992	0.465309
409.875000	0.464404
410.214996	0.475968
410.562988	0.471141
410.917999	0.458271
411.279999	0.449975
411.649994	0.425842
412.026001	0.425892
412.408997	0.427501
412.799011	0.428557
413.195007	0.431222
413.596985	0.433635
414.006012	0.442484
414.420990	0.448467
414.842010	0.463650
415.269012	0.472147
415.701996	0.484716
416.140015	0.495073
416.584015	0.508195
417.032990	0.516792
417.487000	0.522222
417.946991	0.523479
418.411987	0.527752
418.881989	0.532981
419.355988	0.539065
419.835999	0.541528
420.320007	0.541025
420.808990	0.541226
421.302002	0.544193
421.799988	0.546706
422.302002	0.552488
422.808990	0.555656
423.319000	0.556159
423.834015	0.558823
424.352997	0.563399
424.876007	0.565259
425.402008	0.568828
425.933014	0.574409
426.467010	0.588336
427.005005	0.597285
427.546997	0.601357
428.092010	0.611362
428.640991	0.615887
429.194000	0.610005
429.750000	0.609954
430.308990	0.607189
430.872009	0.643892
431.437988	0.694420
432.006989	0.765611
432.579010	0.902866
433.154999	0.987481
433.734009	0.981297
434.316010	0.915687
434.901001	0.814932
435.489990	0.735747
436.080994	0.670840
436.675995	0.619909
437.273987	0.634138
437.873993	0.635847
438.477997	0.627149
439.084991	0.616842
439.695007	0.607491
440.307007	0.601609
440.923004	0.601860
441.541992	0.606334
442.164001	0.610910
442.789001	0.613524
443.416992	0.618954
444.048004	0.617345
444.683014	0.619356
445.320007	0.620814
445.959991	0.621066
446.604004	0.621719
447.251007	0.619960
447.901001	0.621166
448.553986	0.621367
449.209991	0.621820
449.869995	0.622222
450.532990	0.625893
451.200012	0.629412
451.869995	0.633635
452.542999	0.638713
453.220001	0.645048
453.901001	0.649271
454.584991	0.652188
455.273010	0.653042
455.964996	0.651383
456.660004	0.654199
457.359009	0.658522
458.062988	0.658120
458.769989	0.657467
459.480988	0.645903
460.196991	0.637808
460.915985	0.622473
461.640015	0.618401
462.368988	0.606938
463.101990	0.602765
463.838989	0.594821
464.580994	0.593011
465.328003	0.585269
466.079987	0.585520
466.835999	0.577375
467.597992	0.575264
468.364990	0.577878
469.136993	0.584665
469.914001	0.581297
470.696991	0.569231
471.484985	0.559929
472.278992	0.559929
473.079010	0.562695
473.885010	0.567370
474.696991	0.568527
475.515015	0.577677
476.338989	0.582101
477.170013	0.588587
478.007996	0.591101
478.851990	0.593916
479.703003	0.599346
480.559998	0.608547
481.424988	0.598642
482.298004	0.601860
483.177002	0.588637
484.063995	0.581448
484.959015	0.634339
485.862000	0.644847
486.773010	0.600754
487.691986	0.540372
488.619995	0.576319
489.554993	0.614881
490.500000	0.596883
491.453003	0.561588
492.415985	0.564153
493.388000	0.560633
494.368988	0.562896
495.359009	0.559326
496.359985	0.547813
497.369995	0.537908
498.390991	0.531825
499.420990	0.530115
500.463013	0.532227
501.515015	0.538210
502.578003	0.546154
503.652008	0.551081
504.737000	0.552589
505.834015	0.550075
506.942993	0.548517
508.062988	0.546204
509.196014	0.544344
510.341003	0.540020
511.498993	0.544092
512.669006	0.540674
513.853027	0.537305
515.049011	0.533082
516.260010	0.526797
517.484009	0.525339
518.721985	0.526646
519.973999	0.530668
521.239990	0.531523
522.521973	0.528004
523.817993	0.520613
525.129028	0.541578
526.455994	0.550276
527.797974	0.557969
529.156982	0.502715
530.531006	0.487733
531.921997	0.645400
533.330017	0.886828
534.755005	0.907793
536.197021	0.800000
537.656006	0.672147
539.132996	0.528507
540.629028	0.448517
542.142029	0.447813
543.674988	0.433836
545.226013	0.413273
546.796021	0.410105
548.385986	0.389392
549.994995	0.360081
551.625000	0.330417
553.275024	0.314178
554.945984	0.299547
556.637024	0.280845
558.349976	0.270588
560.083984	0.392258
561.841003	0.520512
563.619019	0.593162
565.419983	0.509603
567.244019	0.262695
569.091003	0.162795
570.960999	0.161890
572.854980	0.162846
574.773010	0.174510
576.716003	0.200151
578.682983	0.168477
580.676025	0.105681
582.693970	0.078029
584.737000	0.083258
586.807007	0.076672
588.903015	0.072348
591.026001	0.070186
593.176025	0.067320
595.354004	0.064555
597.559021	0.063499
599.793030	0.061740
602.054993	0.058170
604.346985	0.056511
606.666992	0.050880
609.017029	0.052589
611.398010	0.051986
613.807983	0.050327
616.250000	0.047260
618.721985	0.045500
621.226013	0.047863
623.762024	0.049070
626.330017	0.084967
628.931030	0.143338
631.565002	0.216994
634.232971	0.288939
636.934021	0.341629
639.669983	0.353545
642.440002	0.335193
645.245972	0.305882
648.085999	0.253293
650.963013	0.223027
653.875977	0.206083
656.825989	0.205480
659.812988	0.243489
662.836975	0.360734
665.898987	0.410558
669.000000	0.282755
