# OSRAM HQL 80W High Pressure Mercury Lamp with improved warm deluxe color
#
#    Spectral data Copyright (c) 1998-2009 by I.N. Galidakis          
#                                                                     
#    Extracted from page:                                             
#    <http://ioannis.virtualcomposer2000.com/spectroscope/amici.html> 
#                                                                     
#    This data is distributed in the hope that it will be useful,     
#    but WITHOUT ANY WARRANTY; without even the implied warranty of   
#    MERCHANTABILITY or FITNESS FOR A PARTICULAR PURPOSE.  See the    
#    CCL 3.0 Creative Commons License 3.0 for more details.           
#                                                                     
#    You should have received a copy of the CCL 3.0                   
#    along with this program.  If not, see:                           
#    <http://creativecommons.org/licenses/by/3.0/>.                   
#
404.756989	0.054651
404.901001	0.058974
405.054993	0.092861
405.221008	0.163650
405.398010	0.367672
405.584991	0.457416
405.782013	0.466918
405.989990	0.581649
406.208008	0.670438
406.436005	0.516994
406.674011	0.288487
406.920990	0.247863
407.177002	0.225490
407.442993	0.238110
407.717010	0.332830
408.000000	0.396632
408.291992	0.503268
408.592010	0.455505
408.901001	0.205882
409.217987	0.135797
409.541992	0.108698
409.875000	0.123328
410.214996	0.147863
410.562988	0.149221
410.917999	0.150880
411.279999	0.155857
411.649994	0.167572
412.026001	0.171996
412.408997	0.175566
412.799011	0.180794
413.195007	0.186476
413.596985	0.195928
414.006012	0.203469
414.420990	0.212066
414.842010	0.226194
415.269012	0.232680
415.701996	0.240573
416.140015	0.247813
416.584015	0.254248
417.032990	0.259578
417.487000	0.264253
417.946991	0.267371
418.411987	0.293866
418.881989	0.297034
419.355988	0.300100
419.835999	0.304424
420.320007	0.313172
420.808990	0.321317
421.302002	0.329613
421.799988	0.335797
422.302002	0.344143
422.808990	0.349824
423.319000	0.354952
423.834015	0.362243
424.352997	0.370136
424.876007	0.376521
425.402008	0.383710
425.933014	0.385571
426.467010	0.397134
427.005005	0.402212
427.546997	0.415887
428.092010	0.430317
428.640991	0.445249
429.194000	0.460785
429.750000	0.472851
430.308990	0.488336
430.872009	0.510910
431.437988	0.524334
432.006989	0.532328
432.579010	0.534691
433.154999	0.529663
433.734009	0.523781
434.316010	0.572549
434.901001	0.624335
435.489990	0.623027
436.080994	0.743891
436.675995	0.924133
437.273987	0.898141
437.873993	0.707542
438.477997	0.610155
439.084991	0.591805
439.695007	0.568426
440.307007	0.559125
440.923004	0.551583
441.541992	0.540221
442.164001	0.541528
442.789001	0.541076
443.416992	0.534540
444.048004	0.536802
444.683014	0.539618
445.320007	0.539014
445.959991	0.540875
446.604004	0.542031
447.251007	0.540925
447.901001	0.538562
448.553986	0.537104
449.209991	0.536601
449.869995	0.536601
450.532990	0.536752
451.200012	0.535696
451.869995	0.535947
452.542999	0.535093
453.220001	0.534992
453.901001	0.534942
454.584991	0.534741
455.273010	0.534640
455.964996	0.531825
456.660004	0.533534
457.359009	0.533484
458.062988	0.529160
458.769989	0.526948
459.480988	0.526244
460.196991	0.528406
460.915985	0.523630
461.640015	0.529864
462.368988	0.525188
463.101990	0.522473
463.838989	0.518652
464.580994	0.519507
465.328003	0.519608
466.079987	0.524635
466.835999	0.523881
467.597992	0.518401
468.364990	0.510407
469.136993	0.514731
469.914001	0.507039
470.696991	0.496632
471.484985	0.478130
472.278992	0.468175
473.079010	0.454500
473.885010	0.450076
474.696991	0.441378
475.515015	0.432077
476.338989	0.415535
477.170013	0.411262
478.007996	0.401659
478.851990	0.397285
479.703003	0.392810
480.559998	0.382504
481.424988	0.369633
482.298004	0.356712
483.177002	0.351031
484.063995	0.345199
484.959015	0.335948
485.862000	0.328608
486.773010	0.320965
487.691986	0.316239
488.619995	0.310457
489.554993	0.293565
490.500000	0.297084
491.453003	0.503570
492.415985	0.358120
493.388000	0.212770
494.368988	0.220362
495.359009	0.270387
496.359985	0.235143
497.369995	0.180543
498.390991	0.150528
499.420990	0.141931
500.463013	0.139970
501.515015	0.144294
502.578003	0.149120
503.652008	0.149623
504.737000	0.150628
505.834015	0.150478
506.942993	0.154299
508.062988	0.158974
509.196014	0.164203
510.341003	0.166868
511.498993	0.169985
512.669006	0.167421
513.853027	0.166365
515.049011	0.164957
516.260010	0.163600
517.484009	0.162795
518.721985	0.165862
519.973999	0.169734
521.239990	0.172549
522.521973	0.171041
523.817993	0.176270
525.129028	0.180744
526.455994	0.183007
527.797974	0.190096
529.156982	0.201760
530.531006	0.213575
531.921997	0.220814
533.330017	0.239819
534.755005	0.273605
536.197021	0.286928
537.656006	0.289040
539.132996	0.279437
540.629028	0.272649
542.142029	0.378381
543.674988	0.645349
545.226013	0.683057
546.796021	0.584917
548.385986	0.411966
549.994995	0.310306
551.625000	0.280845
553.275024	0.268829
554.945984	0.253142
556.637024	0.241177
558.349976	0.243188
560.083984	0.237607
561.841003	0.217144
563.619019	0.207541
565.419983	0.212368
567.244019	0.211765
569.091003	0.206486
570.960999	0.210156
572.854980	0.364203
574.773010	0.565912
576.716003	0.570286
578.682983	0.582654
580.676025	0.474963
582.693970	0.312820
584.737000	0.368477
586.807007	0.384867
588.903015	0.400854
591.026001	0.530266
593.176025	0.592207
595.354004	0.487381
597.559021	0.361790
599.793030	0.348718
602.054993	0.376069
604.346985	0.398089
606.666992	0.452941
609.017029	0.482906
611.398010	0.514379
613.807983	0.532378
616.250000	0.576370
618.721985	0.611312
621.226013	0.499749
623.762024	0.381146
626.330017	0.348969
628.931030	0.304676
631.565002	0.235093
634.232971	0.176521
636.934021	0.146154
639.669983	0.139869
642.440002	0.142383
645.245972	0.144796
648.085999	0.153997
650.963013	0.110256
653.875977	0.070488
656.825989	0.053444
659.812988	0.042735
662.836975	0.029613
665.898987	0.042182
669.000000	0.065913
