# PHILIPS HPL 125W High Pressure Mercury Lamp with improved color
#
#    Spectral data Copyright (c) 1998-2009 by I.N. Galidakis          
#                                                                     
#    Extracted from page:                                             
#    <http://ioannis.virtualcomposer2000.com/spectroscope/amici.html> 
#                                                                     
#    This data is distributed in the hope that it will be useful,     
#    but WITHOUT ANY WARRANTY; without even the implied warranty of   
#    MERCHANTABILITY or FITNESS FOR A PARTICULAR PURPOSE.  See the    
#    CCL 3.0 Creative Commons License 3.0 for more details.           
#                                                                     
#    You should have received a copy of the CCL 3.0                   
#    along with this program.  If not, see:                           
#    <http://creativecommons.org/licenses/by/3.0/>.                   
#
404.756989	0.236199
404.901001	0.236199
405.054993	0.235797
405.221008	0.293715
405.398010	0.341931
405.584991	0.404726
405.782013	0.428104
405.989990	0.479839
406.208008	0.605329
406.436005	0.791050
406.674011	0.651684
406.920990	0.451986
407.177002	0.540774
407.442993	0.515033
407.717010	0.470337
408.000000	0.476421
408.291992	0.460382
408.592010	0.695274
408.901001	0.571745
409.217987	0.367823
409.541992	0.410206
409.875000	0.429764
410.214996	0.432026
410.562988	0.444545
410.917999	0.482051
411.279999	0.506486
411.649994	0.491101
412.026001	0.498240
412.408997	0.498341
412.799011	0.507441
413.195007	0.517345
413.596985	0.522373
414.006012	0.528054
414.420990	0.522624
414.842010	0.528959
415.269012	0.530115
415.701996	0.529110
416.140015	0.528607
416.584015	0.529763
417.032990	0.531976
417.487000	0.535042
417.946991	0.534791
418.411987	0.538562
418.881989	0.541880
419.355988	0.542886
419.835999	0.545349
420.320007	0.546656
420.808990	0.550025
421.302002	0.550729
421.799988	0.551181
422.302002	0.552287
422.808990	0.557064
423.319000	0.557214
423.834015	0.558874
424.352997	0.562242
424.876007	0.562845
425.402008	0.560885
425.933014	0.564605
426.467010	0.566465
427.005005	0.571543
427.546997	0.574007
428.092010	0.573001
428.640991	0.575113
429.194000	0.576621
429.750000	0.576269
430.308990	0.583861
430.872009	0.588537
431.437988	0.605832
432.006989	0.608245
432.579010	0.605329
433.154999	0.612166
433.734009	0.606485
434.316010	0.622524
434.901001	0.674711
435.489990	0.692208
436.080994	0.809653
436.675995	0.950529
437.273987	0.945400
437.873993	0.859879
438.477997	0.676521
439.084991	0.693867
439.695007	0.657165
440.307007	0.643942
440.923004	0.628105
441.541992	0.634641
442.164001	0.633133
442.789001	0.618854
443.416992	0.625792
444.048004	0.626345
444.683014	0.626898
445.320007	0.630116
445.959991	0.625993
446.604004	0.629814
447.251007	0.630518
447.901001	0.631825
448.553986	0.631725
449.209991	0.627250
449.869995	0.628054
450.532990	0.627702
451.200012	0.630116
451.869995	0.630619
452.542999	0.629663
453.220001	0.628004
453.901001	0.627652
454.584991	0.627501
455.273010	0.626998
455.964996	0.626496
456.660004	0.624837
457.359009	0.628306
458.062988	0.629110
458.769989	0.625138
459.480988	0.625440
460.196991	0.624686
460.915985	0.622876
461.640015	0.625641
462.368988	0.630971
463.101990	0.634490
463.838989	0.640775
464.580994	0.640372
465.328003	0.641680
466.079987	0.641931
466.835999	0.637457
467.597992	0.634138
468.364990	0.624435
469.136993	0.621016
469.914001	0.612217
470.696991	0.599849
471.484985	0.587933
472.278992	0.579185
473.079010	0.571594
473.885010	0.577778
474.696991	0.572800
475.515015	0.575766
476.338989	0.573705
477.170013	0.568577
478.007996	0.564806
478.851990	0.559779
479.703003	0.555053
480.559998	0.553645
481.424988	0.548416
482.298004	0.546857
483.177002	0.542785
484.063995	0.543589
484.959015	0.542232
485.862000	0.546606
486.773010	0.542684
487.691986	0.530769
488.619995	0.503771
489.554993	0.473404
490.500000	0.576420
491.453003	0.621870
492.415985	0.476320
493.388000	0.410206
494.368988	0.440825
495.359009	0.491202
496.359985	0.411966
497.369995	0.365108
498.390991	0.343238
499.420990	0.325189
500.463013	0.295928
501.515015	0.292358
502.578003	0.296883
503.652008	0.296983
504.737000	0.296782
505.834015	0.298290
506.942993	0.304726
508.062988	0.307290
509.196014	0.307843
510.341003	0.307039
511.498993	0.312670
512.669006	0.314530
513.853027	0.317295
515.049011	0.315234
516.260010	0.318602
517.484009	0.321116
518.721985	0.324334
519.973999	0.325943
521.239990	0.325239
522.521973	0.326094
523.817993	0.328557
525.129028	0.330971
526.455994	0.335445
527.797974	0.341981
529.156982	0.350226
530.531006	0.357617
531.921997	0.364455
533.330017	0.378934
534.755005	0.387481
536.197021	0.390950
537.656006	0.394520
539.132996	0.337054
540.629028	0.469331
542.142029	0.794318
543.674988	0.868426
545.226013	0.734741
546.796021	0.626244
548.385986	0.463248
549.994995	0.422926
551.625000	0.403519
553.275024	0.382504
554.945984	0.376169
556.637024	0.369482
558.349976	0.355304
560.083984	0.354450
561.841003	0.340322
563.619019	0.342585
565.419983	0.342635
567.244019	0.308497
569.091003	0.334993
570.960999	0.470890
572.854980	0.755807
574.773010	0.779939
576.716003	0.689141
578.682983	0.603620
580.676025	0.487129
582.693970	0.408346
584.737000	0.424836
586.807007	0.437356
588.903015	0.419507
591.026001	0.423831
593.176025	0.423429
595.354004	0.425390
597.559021	0.435596
599.793030	0.445249
602.054993	0.452338
604.346985	0.462544
606.666992	0.463851
609.017029	0.477175
611.398010	0.495676
613.807983	0.511161
616.250000	0.542684
618.721985	0.570085
621.226013	0.586777
623.762024	0.589140
626.330017	0.581397
628.931030	0.598039
631.565002	0.582956
634.232971	0.561639
636.934021	0.561387
639.669983	0.555857
642.440002	0.561036
645.245972	0.588939
648.085999	0.597637
650.963013	0.622021
653.875977	0.637758
656.825989	0.617647
659.812988	0.534640
662.836975	0.418552
665.898987	0.217949
669.000000	0.172750
