# High Pressure Mercury Warm Deluxe light 1.4.3 absorbed through red glass
#
#    Spectral data Copyright (c) 1998-2009 by I.N. Galidakis          
#                                                                     
#    Extracted from page:                                             
#    <http://ioannis.virtualcomposer2000.com/spectroscope/amici.html> 
#                                                                     
#    This data is distributed in the hope that it will be useful,     
#    but WITHOUT ANY WARRANTY; without even the implied warranty of   
#    MERCHANTABILITY or FITNESS FOR A PARTICULAR PURPOSE.  See the    
#    CCL 3.0 Creative Commons License 3.0 for more details.           
#                                                                     
#    You should have received a copy of the CCL 3.0                   
#    along with this program.  If not, see:                           
#    <http://creativecommons.org/licenses/by/3.0/>.                   
#
404.756989	0.062745
404.901001	0.062745
405.054993	0.061740
405.221008	0.061740
405.398010	0.061740
405.584991	0.061740
405.782013	0.061740
405.989990	0.061740
406.208008	0.061740
406.436005	0.061740
406.674011	0.065309
406.920990	0.060835
407.177002	0.056058
407.442993	0.054248
407.717010	0.055053
408.000000	0.056159
408.291992	0.055254
408.592010	0.053695
408.901001	0.053746
409.217987	0.051885
409.541992	0.049070
409.875000	0.046506
410.214996	0.045701
410.562988	0.046154
410.917999	0.047210
411.279999	0.048064
411.649994	0.047009
412.026001	0.046355
412.408997	0.045349
412.799011	0.044545
413.195007	0.044545
413.596985	0.044947
414.006012	0.046003
414.420990	0.046808
414.842010	0.047863
415.269012	0.047863
415.701996	0.051383
416.140015	0.054902
416.584015	0.054902
417.032990	0.058421
417.487000	0.061941
417.946991	0.061941
418.411987	0.057315
418.881989	0.057315
419.355988	0.057215
419.835999	0.057114
420.320007	0.057114
420.808990	0.057014
421.302002	0.056913
421.799988	0.056913
422.302002	0.051885
422.808990	0.051885
423.319000	0.051483
423.834015	0.051081
424.352997	0.051081
424.876007	0.050679
425.402008	0.050276
425.933014	0.050276
426.467010	0.047109
427.005005	0.047109
427.546997	0.046305
428.092010	0.045500
428.640991	0.045500
429.194000	0.044696
429.750000	0.043891
430.308990	0.043891
430.872009	0.040422
431.437988	0.040422
432.006989	0.040422
432.579010	0.040422
433.154999	0.040422
433.734009	0.040422
434.316010	0.040422
434.901001	0.040422
435.489990	0.037607
436.080994	0.037607
436.675995	0.037607
437.273987	0.037607
437.873993	0.037607
438.477997	0.037607
439.084991	0.037607
439.695007	0.037607
440.307007	0.032981
440.923004	0.032981
441.541992	0.032981
442.164001	0.032981
442.789001	0.032981
443.416992	0.032981
444.048004	0.032981
444.683014	0.032981
445.320007	0.035596
445.959991	0.035596
446.604004	0.035596
447.251007	0.035596
447.901001	0.035596
448.553986	0.035596
449.209991	0.035596
449.869995	0.035596
450.532990	0.035596
451.200012	0.035596
451.869995	0.035194
452.542999	0.034791
453.220001	0.034791
453.901001	0.034389
454.584991	0.033987
455.273010	0.033987
455.964996	0.033886
456.660004	0.033886
457.359009	0.033886
458.062988	0.033886
458.769989	0.033886
459.480988	0.033886
460.196991	0.033886
460.915985	0.033886
461.640015	0.031473
462.368988	0.031473
463.101990	0.031473
463.838989	0.031473
464.580994	0.031473
465.328003	0.031473
466.079987	0.031473
466.835999	0.031473
467.597992	0.025943
468.364990	0.025943
469.136993	0.025943
469.914001	0.025943
470.696991	0.025943
471.484985	0.025943
472.278992	0.025943
473.079010	0.025943
473.885010	0.022725
474.696991	0.022725
475.515015	0.022725
476.338989	0.022725
477.170013	0.022725
478.007996	0.022725
478.851990	0.022725
479.703003	0.022725
480.559998	0.022725
481.424988	0.022725
482.298004	0.022725
483.177002	0.022725
484.063995	0.022725
484.959015	0.022725
485.862000	0.022725
486.773010	0.022725
487.691986	0.020111
488.619995	0.020111
489.554993	0.020111
490.500000	0.020111
491.453003	0.020111
492.415985	0.020111
493.388000	0.020111
494.368988	0.020111
495.359009	0.019809
496.359985	0.019859
497.369995	0.023730
498.390991	0.027652
499.420990	0.031423
500.463013	0.035294
501.515015	0.042936
502.578003	0.042936
503.652008	0.043137
504.737000	0.043137
505.834015	0.048567
506.942993	0.050276
508.062988	0.050276
509.196014	0.051986
510.341003	0.057416
511.498993	0.057416
512.669006	0.060483
513.853027	0.061488
515.049011	0.062946
516.260010	0.064706
517.484009	0.067722
518.721985	0.068728
519.973999	0.070035
521.239990	0.069985
522.521973	0.068678
523.817993	0.069834
525.129028	0.072046
526.455994	0.075666
527.797974	0.080996
529.156982	0.083710
530.531006	0.085118
531.921997	0.082152
533.330017	0.097386
534.755005	0.101911
536.197021	0.110307
537.656006	0.116290
539.132996	0.123278
540.629028	0.131725
542.142029	0.142132
543.674988	0.151936
545.226013	0.162192
546.796021	0.173353
548.385986	0.188336
549.994995	0.209502
551.625000	0.233886
553.275024	0.257466
554.945984	0.272750
556.637024	0.290347
558.349976	0.327954
560.083984	0.341881
561.841003	0.371342
563.619019	0.406888
565.419983	0.407642
567.244019	0.398039
569.091003	0.424686
570.960999	0.431423
572.854980	0.387984
574.773010	0.443489
576.716003	0.554248
578.682983	0.553997
580.676025	0.508195
582.693970	0.450930
584.737000	0.437004
586.807007	0.413826
588.903015	0.430719
591.026001	0.494922
593.176025	0.733082
595.354004	0.821719
597.559021	0.881801
599.793030	0.920011
602.054993	0.785621
604.346985	0.717547
606.666992	0.597184
609.017029	0.603620
611.398010	0.615938
613.807983	0.617496
616.250000	0.624283
618.721985	0.619859
621.226013	0.614479
623.762024	0.609653
626.330017	0.625591
628.931030	0.651333
631.565002	0.634841
634.232971	0.604474
636.934021	0.586978
639.669983	0.564756
642.440002	0.528758
645.245972	0.498995
648.085999	0.445148
650.963013	0.403167
653.875977	0.361438
656.825989	0.339668
659.812988	0.319356
662.836975	0.324384
665.898987	0.369281
669.000000	0.381146
