# GE Lucalox 35W High Pressure Sodium Lamp
#
#    Spectral data Copyright (c) 1998-2009 by I.N. Galidakis          
#                                                                     
#    Extracted from page:                                             
#    <http://ioannis.virtualcomposer2000.com/spectroscope/amici.html> 
#                                                                     
#    This data is distributed in the hope that it will be useful,     
#    but WITHOUT ANY WARRANTY; without even the implied warranty of   
#    MERCHANTABILITY or FITNESS FOR A PARTICULAR PURPOSE.  See the    
#    CCL 3.0 Creative Commons License 3.0 for more details.           
#                                                                     
#    You should have received a copy of the CCL 3.0                   
#    along with this program.  If not, see:                           
#    <http://creativecommons.org/licenses/by/3.0/>.                   
#
404.756989	0.015686
404.901001	0.015686
405.054993	0.000000
405.221008	0.000000
405.398010	0.000000
405.584991	0.000000
405.782013	0.000000
405.989990	0.000000
406.208008	0.000000
406.436005	0.000000
406.674011	0.000000
406.920990	0.000000
407.177002	0.000000
407.442993	0.000000
407.717010	0.000000
408.000000	0.000000
408.291992	0.000000
408.592010	0.000000
408.901001	0.001609
409.217987	0.001609
409.541992	0.001609
409.875000	0.001609
410.214996	0.001609
410.562988	0.001609
410.917999	0.001609
411.279999	0.001609
411.649994	0.000804
412.026001	0.000804
412.408997	0.000804
412.799011	0.000804
413.195007	0.000804
413.596985	0.000804
414.006012	0.000804
414.420990	0.000804
414.842010	0.001810
415.269012	0.001810
415.701996	0.001810
416.140015	0.001810
416.584015	0.001810
417.032990	0.001810
417.487000	0.001810
417.946991	0.001810
418.411987	0.007843
418.881989	0.007843
419.355988	0.007843
419.835999	0.007843
420.320007	0.007843
420.808990	0.007843
421.302002	0.007843
421.799988	0.007843
422.302002	0.008648
422.808990	0.008698
423.319000	0.011916
423.834015	0.015133
424.352997	0.015535
424.876007	0.018753
425.402008	0.022071
425.933014	0.022272
426.467010	0.037003
427.005005	0.037406
427.546997	0.038260
428.092010	0.041880
428.640991	0.043489
429.194000	0.047059
429.750000	0.054248
430.308990	0.054801
430.872009	0.064253
431.437988	0.074007
432.006989	0.086978
432.579010	0.098542
433.154999	0.107793
433.734009	0.116089
434.316010	0.124837
434.901001	0.132227
435.489990	0.173052
436.080994	0.203620
436.675995	0.225239
437.273987	0.216290
437.873993	0.206184
438.477997	0.207240
439.084991	0.217647
439.695007	0.219708
440.307007	0.233082
440.923004	0.235747
441.541992	0.243992
442.164001	0.246958
442.789001	0.249874
443.416992	0.250025
444.048004	0.253896
444.683014	0.255354
445.320007	0.269633
445.959991	0.286727
446.604004	0.305681
447.251007	0.331725
447.901001	0.361941
448.553986	0.388738
449.209991	0.416893
449.869995	0.442886
450.532990	0.473655
451.200012	0.497034
451.869995	0.513223
452.542999	0.509452
453.220001	0.494621
453.901001	0.483861
454.584991	0.484465
455.273010	0.478934
455.964996	0.460232
456.660004	0.435143
457.359009	0.407994
458.062988	0.375515
458.769989	0.346405
459.480988	0.331272
460.196991	0.323680
460.915985	0.324133
461.640015	0.343540
462.368988	0.367270
463.101990	0.409904
463.838989	0.457718
464.580994	0.492559
465.328003	0.511161
466.079987	0.543539
466.835999	0.557365
467.597992	0.574711
468.364990	0.602111
469.136993	0.593162
469.914001	0.555656
470.696991	0.548617
471.484985	0.533886
472.278992	0.486727
473.079010	0.450076
473.885010	0.397436
474.696991	0.346104
475.515015	0.395425
476.338989	0.425189
477.170013	0.269985
478.007996	0.184615
478.851990	0.163650
479.703003	0.146003
480.559998	0.141981
481.424988	0.141478
482.298004	0.144344
483.177002	0.146606
484.063995	0.151936
484.959015	0.157466
485.862000	0.164103
486.773010	0.160634
487.691986	0.169784
488.619995	0.169532
489.554993	0.180090
490.500000	0.209854
491.453003	0.224434
492.415985	0.200603
493.388000	0.202665
494.368988	0.228507
495.359009	0.278180
496.359985	0.357567
497.369995	0.586727
498.390991	0.672449
499.420990	0.542634
500.463013	0.314027
501.515015	0.226194
502.578003	0.191101
503.652008	0.172750
504.737000	0.165309
505.834015	0.155807
506.942993	0.154500
508.062988	0.157416
509.196014	0.164153
510.341003	0.172901
511.498993	0.182001
512.669006	0.207039
513.853027	0.402111
515.049011	0.537556
516.260010	0.233183
517.484009	0.175666
518.721985	0.189040
519.973999	0.181398
521.239990	0.183660
522.521973	0.193514
523.817993	0.194268
525.129028	0.193313
526.455994	0.197737
527.797974	0.204776
529.156982	0.210458
530.531006	0.215284
531.921997	0.217345
533.330017	0.224183
534.755005	0.224887
536.197021	0.227552
537.656006	0.233836
539.132996	0.242584
540.629028	0.254801
542.142029	0.272448
543.674988	0.290246
545.226013	0.336149
546.796021	0.339769
548.385986	0.363751
549.994995	0.401709
551.625000	0.412519
553.275024	0.394872
554.945984	0.390196
556.637024	0.395173
558.349976	0.399950
560.083984	0.408396
561.841003	0.413072
563.619019	0.420915
565.419983	0.442484
567.244019	0.517747
569.091003	0.515535
570.960999	0.436099
572.854980	0.429613
574.773010	0.442987
576.716003	0.439517
578.682983	0.439719
580.676025	0.433937
582.693970	0.478381
584.737000	0.590799
586.807007	0.442987
588.903015	0.276772
591.026001	0.383258
593.176025	0.444444
595.354004	0.478884
597.559021	0.430468
599.793030	0.418301
602.054993	0.462393
604.346985	0.479588
606.666992	0.485319
609.017029	0.488788
611.398010	0.496280
613.807983	0.534188
616.250000	0.556209
618.721985	0.554399
621.226013	0.560281
623.762024	0.577023
626.330017	0.575767
628.931030	0.567923
631.565002	0.554148
634.232971	0.546154
636.934021	0.538864
639.669983	0.530970
642.440002	0.515384
645.245972	0.506134
648.085999	0.483359
650.963013	0.470287
653.875977	0.453746
656.825989	0.434892
659.812988	0.396481
662.836975	0.354399
665.898987	0.295525
669.000000	0.273152
