# OSRAM HQI-T 400W/D Metal Halide Lamp with Mercury, Thallium, Dysprosium, Holmium, Thulium and Caesium iodides
#
#    Spectral data Copyright (c) 1998-2009 by I.N. Galidakis          
#                                                                     
#    Extracted from page:                                             
#    <http://ioannis.virtualcomposer2000.com/spectroscope/amici.html> 
#                                                                     
#    This data is distributed in the hope that it will be useful,     
#    but WITHOUT ANY WARRANTY; without even the implied warranty of   
#    MERCHANTABILITY or FITNESS FOR A PARTICULAR PURPOSE.  See the    
#    CCL 3.0 Creative Commons License 3.0 for more details.           
#                                                                     
#    You should have received a copy of the CCL 3.0                   
#    along with this program.  If not, see:                           
#    <http://creativecommons.org/licenses/by/3.0/>.                   
#
404.756989	0.124585
404.901001	0.125993
405.054993	0.141478
405.221008	0.143942
405.398010	0.198492
405.584991	0.246757
405.782013	0.283409
405.989990	0.308396
406.208008	0.316742
406.436005	0.308145
406.674011	0.269080
406.920990	0.237205
407.177002	0.205329
407.442993	0.196481
407.717010	0.203519
408.000000	0.216189
408.291992	0.243841
408.592010	0.270940
408.901001	0.311715
409.217987	0.356310
409.541992	0.406486
409.875000	0.448014
410.214996	0.490246
410.562988	0.501911
410.917999	0.474761
411.279999	0.437506
411.649994	0.397285
412.026001	0.405480
412.408997	0.434239
412.799011	0.446003
413.195007	0.434439
413.596985	0.409703
414.006012	0.363902
414.420990	0.346506
414.842010	0.357365
415.269012	0.375716
415.701996	0.427853
416.140015	0.478633
416.584015	0.501609
417.032990	0.496782
417.487000	0.507742
417.946991	0.522473
418.411987	0.534339
418.881989	0.543841
419.355988	0.543589
419.835999	0.534892
420.320007	0.536601
420.808990	0.550578
421.302002	0.559376
421.799988	0.559175
422.302002	0.555958
422.808990	0.528356
423.319000	0.498391
423.834015	0.478985
424.352997	0.475465
424.876007	0.482605
425.402008	0.488688
425.933014	0.478582
426.467010	0.446104
427.005005	0.425038
427.546997	0.409251
428.092010	0.387783
428.640991	0.368024
429.194000	0.369231
429.750000	0.394520
430.308990	0.409955
430.872009	0.430015
431.437988	0.431473
432.006989	0.392710
432.579010	0.378683
433.154999	0.369884
433.734009	0.377476
434.316010	0.453595
434.901001	0.477225
435.489990	0.518954
436.080994	0.591353
436.675995	0.639166
437.273987	0.602262
437.873993	0.528658
438.477997	0.498441
439.084991	0.500955
439.695007	0.480795
440.307007	0.459729
440.923004	0.454601
441.541992	0.452640
442.164001	0.445752
442.789001	0.417496
443.416992	0.414278
444.048004	0.429110
444.683014	0.441126
445.320007	0.477426
445.959991	0.480493
446.604004	0.464204
447.251007	0.446707
447.901001	0.429814
448.553986	0.427099
449.209991	0.446607
449.869995	0.461187
450.532990	0.472047
451.200012	0.471142
451.869995	0.460081
452.542999	0.470790
453.220001	0.482102
453.901001	0.486023
454.584991	0.495777
455.273010	0.488789
455.964996	0.504072
456.660004	0.551634
457.359009	0.560784
458.062988	0.549321
458.769989	0.541025
459.480988	0.561991
460.196991	0.580090
460.915985	0.565409
461.640015	0.556410
462.368988	0.582604
463.101990	0.555857
463.838989	0.516491
464.580994	0.527903
465.328003	0.535998
466.079987	0.509201
466.835999	0.492660
467.597992	0.522423
468.364990	0.554952
469.136993	0.542785
469.914001	0.505681
470.696991	0.496229
471.484985	0.464053
472.278992	0.474560
473.079010	0.532931
473.885010	0.513173
474.696991	0.445500
475.515015	0.413021
476.338989	0.411413
477.170013	0.394067
478.007996	0.404575
478.851990	0.441227
479.703003	0.389291
480.559998	0.367572
481.424988	0.379588
482.298004	0.414731
483.177002	0.425591
484.063995	0.389140
484.959015	0.345500
485.862000	0.338814
486.773010	0.357466
487.691986	0.383107
488.619995	0.367924
489.554993	0.322172
490.500000	0.305279
491.453003	0.301005
492.415985	0.312066
493.388000	0.349724
494.368988	0.326646
495.359009	0.274460
496.359985	0.264153
497.369995	0.279085
498.390991	0.288989
499.420990	0.274510
500.463013	0.272750
501.515015	0.297436
502.578003	0.334641
503.652008	0.362795
504.737000	0.364505
505.834015	0.414027
506.942993	0.368326
508.062988	0.301458
509.196014	0.319206
510.341003	0.371342
511.498993	0.374661
512.669006	0.344897
513.853027	0.369482
515.049011	0.379035
516.260010	0.384666
517.484009	0.394520
518.721985	0.389542
519.973999	0.392509
521.239990	0.410508
522.521973	0.397335
523.817993	0.363600
525.129028	0.382202
526.455994	0.363851
527.797974	0.395073
529.156982	0.471493
530.531006	0.410206
531.921997	0.437607
533.330017	0.676722
534.755005	0.712117
536.197021	0.636199
537.656006	0.579437
539.132996	0.500252
540.629028	0.412066
542.142029	0.360382
543.674988	0.430518
545.226013	0.521468
546.796021	0.399648
548.385986	0.353897
549.994995	0.347562
551.625000	0.341428
553.275024	0.352791
554.945984	0.348065
556.637024	0.346154
558.349976	0.326245
560.083984	0.323479
561.841003	0.371393
563.619019	0.365510
565.419983	0.359125
567.244019	0.357617
569.091003	0.302011
570.960999	0.273454
572.854980	0.289794
574.773010	0.312871
576.716003	0.399045
578.682983	0.491403
580.676025	0.468175
582.693970	0.394721
584.737000	0.395173
586.807007	0.482403
588.903015	0.506687
591.026001	0.504977
593.176025	0.485973
595.354004	0.465309
597.559021	0.526697
599.793030	0.567722
602.054993	0.508044
604.346985	0.461287
606.666992	0.475867
609.017029	0.525389
611.398010	0.532479
613.807983	0.501609
616.250000	0.510709
618.721985	0.529009
621.226013	0.509000
623.762024	0.475113
626.330017	0.495324
628.931030	0.478633
631.565002	0.448567
634.232971	0.436249
636.934021	0.432428
639.669983	0.416893
642.440002	0.411664
645.245972	0.409502
648.085999	0.396028
650.963013	0.369231
653.875977	0.377275
656.825989	0.409452
659.812988	0.396883
662.836975	0.322675
665.898987	0.223328
669.000000	0.195978
