# PHILIPS HPI-T 400W Metal Halide Lamp with Mercury, Sodium, Thallium and Indium iodides
#
#    Spectral data Copyright (c) 1998-2009 by I.N. Galidakis          
#                                                                     
#    Extracted from page:                                             
#    <http://ioannis.virtualcomposer2000.com/spectroscope/amici.html> 
#                                                                     
#    This data is distributed in the hope that it will be useful,     
#    but WITHOUT ANY WARRANTY; without even the implied warranty of   
#    MERCHANTABILITY or FITNESS FOR A PARTICULAR PURPOSE.  See the    
#    CCL 3.0 Creative Commons License 3.0 for more details.           
#                                                                     
#    You should have received a copy of the CCL 3.0                   
#    along with this program.  If not, see:                           
#    <http://creativecommons.org/licenses/by/3.0/>.                   
#
404.756989	0.013876
404.901001	0.013876
405.054993	0.013072
405.221008	0.007039
405.398010	0.016792
405.584991	0.039568
405.782013	0.137557
405.989990	0.184565
406.208008	0.139467
406.436005	0.057717
406.674011	0.029965
406.920990	0.024183
407.177002	0.017848
407.442993	0.019055
407.717010	0.028758
408.000000	0.041026
408.291992	0.058421
408.592010	0.076521
408.901001	0.092559
409.217987	0.136802
409.541992	0.353394
409.875000	0.429010
410.214996	0.493313
410.562988	0.538310
410.917999	0.524987
411.279999	0.488386
411.649994	0.480040
412.026001	0.476722
412.408997	0.436551
412.799011	0.363751
413.195007	0.273957
413.596985	0.184716
414.006012	0.115837
414.420990	0.082504
414.842010	0.075515
415.269012	0.065360
415.701996	0.054550
416.140015	0.043942
416.584015	0.043540
417.032990	0.043037
417.487000	0.048467
417.946991	0.048668
418.411987	0.039467
418.881989	0.039366
419.355988	0.040774
419.835999	0.040875
420.320007	0.044646
420.808990	0.044696
421.302002	0.049070
421.799988	0.049824
422.302002	0.059980
422.808990	0.060935
423.319000	0.066013
423.834015	0.067069
424.352997	0.070136
424.876007	0.069583
425.402008	0.072348
425.933014	0.073504
426.467010	0.079638
427.005005	0.079940
427.546997	0.087632
428.092010	0.092056
428.640991	0.096531
429.194000	0.099950
429.750000	0.108044
430.308990	0.112971
430.872009	0.125541
431.437988	0.127350
432.006989	0.112368
432.579010	0.109100
433.154999	0.135747
433.734009	0.197084
434.316010	0.301760
434.901001	0.389542
435.489990	0.471041
436.080994	0.500855
436.675995	0.637004
437.273987	0.638763
437.873993	0.474057
438.477997	0.411714
439.084991	0.129663
439.695007	0.074912
440.307007	0.050226
440.923004	0.048919
441.541992	0.056963
442.164001	0.062393
442.789001	0.064806
443.416992	0.066516
444.048004	0.084565
444.683014	0.089895
445.320007	0.081498
445.959991	0.080945
446.604004	0.077979
447.251007	0.078281
447.901001	0.091554
448.553986	0.100050
449.209991	0.100754
449.869995	0.113575
450.532990	0.226094
451.200012	0.304223
451.869995	0.398693
452.542999	0.566616
453.220001	0.682454
453.901001	0.648517
454.584991	0.566516
455.273010	0.568426
455.964996	0.560835
456.660004	0.486124
457.359009	0.266214
458.062988	0.158170
458.769989	0.123781
459.480988	0.107290
460.196991	0.094771
460.915985	0.079889
461.640015	0.057567
462.368988	0.051131
463.101990	0.051584
463.838989	0.048919
464.580994	0.042182
465.328003	0.043540
466.079987	0.050478
466.835999	0.051483
467.597992	0.060382
468.364990	0.064706
469.136993	0.062996
469.914001	0.052086
470.696991	0.044243
471.484985	0.043540
472.278992	0.042132
473.079010	0.039165
473.885010	0.035344
474.696991	0.030065
475.515015	0.028658
476.338989	0.030166
477.170013	0.028758
478.007996	0.024987
478.851990	0.025138
479.703003	0.027853
480.559998	0.021066
481.424988	0.024133
482.298004	0.029462
483.177002	0.032831
484.063995	0.033032
484.959015	0.031121
485.862000	0.027049
486.773010	0.025138
487.691986	0.027652
488.619995	0.028155
489.554993	0.026898
490.500000	0.028758
491.453003	0.035093
492.415985	0.039618
493.388000	0.033987
494.368988	0.027250
495.359009	0.037154
496.359985	0.033032
497.369995	0.059125
498.390991	0.137557
499.420990	0.118049
500.463013	0.038411
501.515015	0.034842
502.578003	0.035194
503.652008	0.035495
504.737000	0.033534
505.834015	0.036350
506.942993	0.039517
508.062988	0.041780
509.196014	0.044243
510.341003	0.050126
511.498993	0.056461
512.669006	0.064857
513.853027	0.074962
515.049011	0.085370
516.260010	0.087733
517.484009	0.090347
518.721985	0.102966
519.973999	0.121116
521.239990	0.134439
522.521973	0.126043
523.817993	0.118954
525.129028	0.092609
526.455994	0.093816
527.797974	0.101106
529.156982	0.125490
530.531006	0.172499
531.921997	0.180694
533.330017	0.357768
534.755005	0.595022
536.197021	0.574157
537.656006	0.518351
539.132996	0.481951
540.629028	0.334289
542.142029	0.178431
543.674988	0.192056
545.226013	0.439216
546.796021	0.491302
548.385986	0.210558
549.994995	0.138210
551.625000	0.114731
553.275024	0.107340
554.945984	0.087129
556.637024	0.083710
558.349976	0.080091
560.083984	0.079286
561.841003	0.085369
563.619019	0.096531
565.419983	0.126496
567.244019	0.193313
569.091003	0.359980
570.960999	0.190246
572.854980	0.062443
574.773010	0.088084
576.716003	0.255556
578.682983	0.385973
580.676025	0.334439
582.693970	0.181549
584.737000	0.209402
586.807007	0.354349
588.903015	0.450830
591.026001	0.534590
593.176025	0.520613
595.354004	0.477929
597.559021	0.487381
599.793030	0.500201
602.054993	0.505530
604.346985	0.480342
606.666992	0.440975
609.017029	0.426093
611.398010	0.409251
613.807983	0.391101
616.250000	0.372298
618.721985	0.344244
621.226013	0.310860
623.762024	0.281247
626.330017	0.264806
628.931030	0.248115
631.565002	0.235244
634.232971	0.212871
636.934021	0.195626
639.669983	0.176018
642.440002	0.166315
645.245972	0.154550
648.085999	0.143288
650.963013	0.131071
653.875977	0.127250
656.825989	0.117345
659.812988	0.106486
662.836975	0.091101
665.898987	0.091252
669.000000	0.102916
