# GE MVR325IUWM 325 Watt I-Line Multi-Vapor Metal Halide - Clear Watt Miser Metal Halide Lamp with Mercury, Sodium and Scandium iodides
#
#    Spectral data Copyright (c) 1998-2009 by I.N. Galidakis          
#                                                                     
#    Extracted from page:                                             
#    <http://ioannis.virtualcomposer2000.com/spectroscope/amici.html> 
#                                                                     
#    This data is distributed in the hope that it will be useful,     
#    but WITHOUT ANY WARRANTY; without even the implied warranty of   
#    MERCHANTABILITY or FITNESS FOR A PARTICULAR PURPOSE.  See the    
#    CCL 3.0 Creative Commons License 3.0 for more details.           
#                                                                     
#    You should have received a copy of the CCL 3.0                   
#    along with this program.  If not, see:                           
#    <http://creativecommons.org/licenses/by/3.0/>.                   
#
404.756989	0.143188
404.901001	0.312971
405.054993	0.421518
405.221008	0.387230
405.398010	0.344193
405.584991	0.337004
405.782013	0.370639
405.989990	0.415234
406.208008	0.465511
406.436005	0.470337
406.674011	0.389794
406.920990	0.336149
407.177002	0.278482
407.442993	0.260935
407.717010	0.293062
408.000000	0.351634
408.291992	0.440573
408.592010	0.466265
408.901001	0.473907
409.217987	0.428456
409.541992	0.338411
409.875000	0.259980
410.214996	0.211513
410.562988	0.189794
410.917999	0.177979
411.279999	0.175968
411.649994	0.187079
412.026001	0.226194
412.408997	0.302313
412.799011	0.382554
413.195007	0.451835
413.596985	0.486174
414.006012	0.495274
414.420990	0.499497
414.842010	0.514882
415.269012	0.519507
415.701996	0.521971
416.140015	0.513826
416.584015	0.457114
417.032990	0.372046
417.487000	0.276923
417.946991	0.262896
418.411987	0.260935
418.881989	0.254852
419.355988	0.257717
419.835999	0.278130
420.320007	0.334741
420.808990	0.383761
421.302002	0.427149
421.799988	0.454651
422.302002	0.465058
422.808990	0.491654
423.319000	0.535042
423.834015	0.549824
424.352997	0.556812
424.876007	0.548215
425.402008	0.479135
425.933014	0.378482
426.467010	0.284615
427.005005	0.281548
427.546997	0.301760
428.092010	0.320010
428.640991	0.332378
429.194000	0.348115
429.750000	0.381448
430.308990	0.419105
430.872009	0.491051
431.437988	0.536551
432.006989	0.567823
432.579010	0.575867
433.154999	0.573052
433.734009	0.523328
434.316010	0.495626
434.901001	0.512921
435.489990	0.547410
436.080994	0.617547
436.675995	0.644747
437.273987	0.655455
437.873993	0.566717
438.477997	0.545048
439.084991	0.559427
439.695007	0.524535
440.307007	0.515334
440.923004	0.528456
441.541992	0.544092
442.164001	0.542031
442.789001	0.541930
443.416992	0.518250
444.048004	0.399246
444.683014	0.341428
445.320007	0.331121
445.959991	0.326194
446.604004	0.327401
447.251007	0.332529
447.901001	0.336400
448.553986	0.342182
449.209991	0.388084
449.869995	0.427602
450.532990	0.471946
451.200012	0.467120
451.869995	0.449573
452.542999	0.436400
453.220001	0.447109
453.901001	0.470136
454.584991	0.531071
455.273010	0.548567
455.964996	0.560935
456.660004	0.563499
457.359009	0.546958
458.062988	0.553846
458.769989	0.559175
459.480988	0.552338
460.196991	0.543439
460.915985	0.562745
461.640015	0.562795
462.368988	0.538512
463.101990	0.441377
463.838989	0.367471
464.580994	0.375314
465.328003	0.405731
466.079987	0.464455
466.835999	0.511966
467.597992	0.613273
468.364990	0.627703
469.136993	0.613273
469.914001	0.538009
470.696991	0.520563
471.484985	0.590095
472.278992	0.589190
473.079010	0.568879
473.885010	0.627351
474.696991	0.690448
475.515015	0.692409
476.338989	0.582303
477.170013	0.527099
478.007996	0.551081
478.851990	0.602916
479.703003	0.619910
480.559998	0.532680
481.424988	0.443892
482.298004	0.454952
483.177002	0.546254
484.063995	0.582252
484.959015	0.614127
485.862000	0.594419
486.773010	0.457919
487.691986	0.486325
488.619995	0.553695
489.554993	0.480744
490.500000	0.423630
491.453003	0.483007
492.415985	0.492057
493.388000	0.410910
494.368988	0.435848
495.359009	0.507089
496.359985	0.447562
497.369995	0.404374
498.390991	0.593816
499.420990	0.597939
500.463013	0.349925
501.515015	0.335093
502.578003	0.504474
503.652008	0.438864
504.737000	0.283861
505.834015	0.370940
506.942993	0.619658
508.062988	0.665360
509.196014	0.654802
510.341003	0.646858
511.498993	0.574460
512.669006	0.336551
513.853027	0.237708
515.049011	0.295475
516.260010	0.307893
517.484009	0.231171
518.721985	0.221267
519.973999	0.359125
521.239990	0.568678
522.521973	0.439668
523.817993	0.312971
525.129028	0.364253
526.455994	0.372147
527.797974	0.360332
529.156982	0.398492
530.531006	0.330819
531.921997	0.324937
533.330017	0.468527
534.755005	0.592659
536.197021	0.486024
537.656006	0.437205
539.132996	0.484415
540.629028	0.374761
542.142029	0.366516
543.674988	0.439417
545.226013	0.534540
546.796021	0.566214
548.385986	0.484515
549.994995	0.399195
551.625000	0.451282
553.275024	0.459779
554.945984	0.374560
556.637024	0.359678
558.349976	0.355455
560.083984	0.351081
561.841003	0.306988
563.619019	0.297486
565.419983	0.382956
567.244019	0.469130
569.091003	0.498844
570.960999	0.513524
572.854980	0.492107
574.773010	0.289944
576.716003	0.346456
578.682983	0.477376
580.676025	0.442685
582.693970	0.238814
584.737000	0.242433
586.807007	0.359678
588.903015	0.478934
591.026001	0.568527
593.176025	0.567521
595.354004	0.491604
597.559021	0.509251
599.793030	0.534037
602.054993	0.534288
604.346985	0.526747
606.666992	0.474611
609.017029	0.448618
611.398010	0.434490
613.807983	0.434942
616.250000	0.442233
618.721985	0.448065
621.226013	0.477527
623.762024	0.516591
626.330017	0.518452
628.931030	0.476672
631.565002	0.457315
634.232971	0.380895
636.934021	0.306335
639.669983	0.287632
642.440002	0.251483
645.245972	0.200050
648.085999	0.155907
650.963013	0.130820
653.875977	0.114932
656.825989	0.109201
659.812988	0.114932
662.836975	0.121267
665.898987	0.126898
669.000000	0.127149
