# Incandescent light 1.2.3 absorbed through olive oil. 
#
#    Spectral data Copyright (c) 1998-2009 by I.N. Galidakis          
#                                                                     
#    Extracted from page:                                             
#    <http://ioannis.virtualcomposer2000.com/spectroscope/amici.html> 
#                                                                     
#    This data is distributed in the hope that it will be useful,     
#    but WITHOUT ANY WARRANTY; without even the implied warranty of   
#    MERCHANTABILITY or FITNESS FOR A PARTICULAR PURPOSE.  See the    
#    CCL 3.0 Creative Commons License 3.0 for more details.           
#                                                                     
#    You should have received a copy of the CCL 3.0                   
#    along with this program.  If not, see:                           
#    <http://creativecommons.org/licenses/by/3.0/>.                   
#
404.756989	0.003922
404.901001	0.003922
405.054993	0.003570
405.221008	0.003167
405.398010	0.003117
405.584991	0.003821
405.782013	0.004776
405.989990	0.004877
406.208008	0.004726
406.436005	0.004374
406.674011	0.004123
406.920990	0.004072
407.177002	0.004022
407.442993	0.004173
407.717010	0.004173
408.000000	0.004273
408.291992	0.004374
408.592010	0.004475
408.901001	0.004827
409.217987	0.005430
409.541992	0.005530
409.875000	0.004475
410.214996	0.004123
410.562988	0.005028
410.917999	0.004575
411.279999	0.003972
411.649994	0.004123
412.026001	0.003469
412.408997	0.003167
412.799011	0.002815
413.195007	0.004324
413.596985	0.005530
414.006012	0.005480
414.420990	0.005782
414.842010	0.003871
415.269012	0.004022
415.701996	0.003871
416.140015	0.004273
416.584015	0.004173
417.032990	0.004173
417.487000	0.004123
417.946991	0.004575
418.411987	0.004726
418.881989	0.004776
419.355988	0.005430
419.835999	0.005983
420.320007	0.005832
420.808990	0.005882
421.302002	0.005782
421.799988	0.005882
422.302002	0.005229
422.808990	0.005681
423.319000	0.005631
423.834015	0.005882
424.352997	0.005832
424.876007	0.005882
425.402008	0.006285
425.933014	0.006737
426.467010	0.005832
427.005005	0.004776
427.546997	0.005329
428.092010	0.005480
428.640991	0.005631
429.194000	0.005229
429.750000	0.004927
430.308990	0.006134
430.872009	0.006033
431.437988	0.005681
432.006989	0.006083
432.579010	0.006285
433.154999	0.005782
433.734009	0.005480
434.316010	0.005279
434.901001	0.006385
435.489990	0.005229
436.080994	0.004827
436.675995	0.004625
437.273987	0.004072
437.873993	0.004324
438.477997	0.004575
439.084991	0.004827
439.695007	0.004726
440.307007	0.006385
440.923004	0.005229
441.541992	0.005178
442.164001	0.005681
442.789001	0.005681
443.416992	0.005229
444.048004	0.005178
444.683014	0.006134
445.320007	0.007290
445.959991	0.005933
446.604004	0.005128
447.251007	0.005229
447.901001	0.005530
448.553986	0.006335
449.209991	0.006134
449.869995	0.005782
450.532990	0.007240
451.200012	0.006586
451.869995	0.006234
452.542999	0.006586
453.220001	0.007340
453.901001	0.007743
454.584991	0.007190
455.273010	0.006536
455.964996	0.006335
456.660004	0.007592
457.359009	0.010156
458.062988	0.009402
458.769989	0.008497
459.480988	0.007743
460.196991	0.007743
460.915985	0.008748
461.640015	0.008798
462.368988	0.009402
463.101990	0.010558
463.838989	0.011011
464.580994	0.010206
465.328003	0.009653
466.079987	0.009804
466.835999	0.010156
467.597992	0.009351
468.364990	0.009754
469.136993	0.010558
469.914001	0.010709
470.696991	0.010457
471.484985	0.010407
472.278992	0.011212
473.079010	0.012569
473.885010	0.012469
474.696991	0.013725
475.515015	0.015887
476.338989	0.017295
477.170013	0.016994
478.007996	0.016440
478.851990	0.016792
479.703003	0.018100
480.559998	0.015334
481.424988	0.014832
482.298004	0.016491
483.177002	0.018803
484.063995	0.019407
484.959015	0.019004
485.862000	0.019357
486.773010	0.019206
487.691986	0.020010
488.619995	0.021669
489.554993	0.022625
490.500000	0.025591
491.453003	0.032529
492.415985	0.038964
493.388000	0.045148
494.368988	0.049723
495.359009	0.055606
496.359985	0.072348
497.369995	0.089844
498.390991	0.115234
499.420990	0.147260
500.463013	0.187984
501.515015	0.227904
502.578003	0.270085
503.652008	0.309251
504.737000	0.342132
505.834015	0.375767
506.942993	0.407592
508.062988	0.445249
509.196014	0.477979
510.341003	0.504223
511.498993	0.519256
512.669006	0.527853
513.853027	0.537154
515.049011	0.537104
516.260010	0.531423
517.484009	0.520965
518.721985	0.508296
519.973999	0.493162
521.239990	0.475113
522.521973	0.469633
523.817993	0.478582
525.129028	0.493012
526.455994	0.504877
527.797974	0.513122
529.156982	0.519909
530.531006	0.526747
531.921997	0.531473
533.330017	0.535093
534.755005	0.535948
536.197021	0.541528
537.656006	0.539819
539.132996	0.537456
540.629028	0.537255
542.142029	0.530618
543.674988	0.529160
545.226013	0.511262
546.796021	0.507541
548.385986	0.502413
549.994995	0.496430
551.625000	0.494470
553.275024	0.502564
554.945984	0.512820
556.637024	0.512519
558.349976	0.519407
560.083984	0.523781
561.841003	0.530668
563.619019	0.534439
565.419983	0.534741
567.244019	0.532076
569.091003	0.526144
570.960999	0.520513
572.854980	0.507541
574.773010	0.500905
576.716003	0.486576
578.682983	0.488386
580.676025	0.499145
582.693970	0.503620
584.737000	0.508245
586.807007	0.510960
588.903015	0.528959
591.026001	0.527400
593.176025	0.532026
595.354004	0.548114
597.559021	0.565560
599.793030	0.585671
602.054993	0.607139
604.346985	0.619809
606.666992	0.639115
609.017029	0.664354
611.398010	0.684616
613.807983	0.700654
616.250000	0.700956
618.721985	0.687733
621.226013	0.658975
623.762024	0.621065
626.330017	0.549874
628.931030	0.392509
631.565002	0.248668
634.232971	0.168778
636.934021	0.135948
639.669983	0.164052
642.440002	0.225440
645.245972	0.299447
648.085999	0.391755
650.963013	0.472700
653.875977	0.465058
656.825989	0.430065
659.812988	0.391654
662.836975	0.350226
665.898987	0.293917
669.000000	0.231373
