# PHILIPS spectral zinc Lamp - Continuous Zinc low pressure thermionic discharge
#
#    Spectral data Copyright (c) 1998-2009 by I.N. Galidakis          
#                                                                     
#    Extracted from page:                                             
#    <http://ioannis.virtualcomposer2000.com/spectroscope/amici.html> 
#                                                                     
#    This data is distributed in the hope that it will be useful,     
#    but WITHOUT ANY WARRANTY; without even the implied warranty of   
#    MERCHANTABILITY or FITNESS FOR A PARTICULAR PURPOSE.  See the    
#    CCL 3.0 Creative Commons License 3.0 for more details.           
#                                                                     
#    You should have received a copy of the CCL 3.0                   
#    along with this program.  If not, see:                           
#    <http://creativecommons.org/licenses/by/3.0/>.                   
#
404.756989	0.002413
404.901001	0.002413
405.054993	0.003318
405.221008	0.003318
405.398010	0.003318
405.584991	0.003318
405.782013	0.003318
405.989990	0.003318
406.208008	0.003318
406.436005	0.003318
406.674011	0.003318
406.920990	0.003218
407.177002	0.003218
407.442993	0.003268
407.717010	0.003419
408.000000	0.003318
408.291992	0.003369
408.592010	0.003419
408.901001	0.003519
409.217987	0.003519
409.541992	0.003519
409.875000	0.003519
410.214996	0.003519
410.562988	0.003519
410.917999	0.003519
411.279999	0.003519
411.649994	0.003620
412.026001	0.003570
412.408997	0.003519
412.799011	0.003519
413.195007	0.003519
413.596985	0.003519
414.006012	0.003570
414.420990	0.003620
414.842010	0.002916
415.269012	0.002916
415.701996	0.003318
416.140015	0.003318
416.584015	0.002916
417.032990	0.002916
417.487000	0.002514
417.946991	0.002514
418.411987	0.003469
418.881989	0.003469
419.355988	0.003469
419.835999	0.003469
420.320007	0.003670
420.808990	0.003570
421.302002	0.003570
421.799988	0.003570
422.302002	0.004575
422.808990	0.004374
423.319000	0.004374
423.834015	0.004374
424.352997	0.004977
424.876007	0.006737
425.402008	0.007491
425.933014	0.007893
426.467010	0.008396
427.005005	0.008044
427.546997	0.008296
428.092010	0.010055
428.640991	0.012167
429.194000	0.014731
429.750000	0.014882
430.308990	0.014379
430.872009	0.016089
431.437988	0.017647
432.006989	0.018049
432.579010	0.019608
433.154999	0.021367
433.734009	0.022926
434.316010	0.028004
434.901001	0.029663
435.489990	0.043037
436.080994	0.040674
436.675995	0.036953
437.273987	0.034640
437.873993	0.035696
438.477997	0.038814
439.084991	0.039920
439.695007	0.039719
440.307007	0.043087
440.923004	0.042735
441.541992	0.045953
442.164001	0.049874
442.789001	0.053343
443.416992	0.055656
444.048004	0.056511
444.683014	0.056511
445.320007	0.057215
445.959991	0.055656
446.604004	0.055907
447.251007	0.058623
447.901001	0.059728
448.553986	0.061689
449.209991	0.063550
449.869995	0.065812
450.532990	0.067924
451.200012	0.070337
451.869995	0.073454
452.542999	0.075113
453.220001	0.076873
453.901001	0.079035
454.584991	0.083258
455.273010	0.086425
455.964996	0.093917
456.660004	0.090498
457.359009	0.097386
458.062988	0.111513
458.769989	0.118301
459.480988	0.125239
460.196991	0.144444
460.915985	0.165259
461.640015	0.197939
462.368988	0.270136
463.101990	0.348014
463.838989	0.301559
464.580994	0.302715
465.328003	0.342534
466.079987	0.317245
466.835999	0.456611
467.597992	0.766968
468.364990	0.781347
469.136993	0.488336
469.914001	0.324535
470.696991	0.470035
471.484985	0.802916
472.278992	0.842332
473.079010	0.633836
473.885010	0.337607
474.696991	0.334037
475.515015	0.348768
476.338989	0.346305
477.170013	0.347562
478.007996	0.303570
478.851990	0.497838
479.703003	0.799396
480.559998	0.846757
481.424988	0.704123
482.298004	0.314731
483.177002	0.256611
484.063995	0.250075
484.959015	0.205028
485.862000	0.174057
486.773010	0.147009
487.691986	0.129563
488.619995	0.115535
489.554993	0.098140
490.500000	0.085571
491.453003	0.075515
492.415985	0.066164
493.388000	0.058572
494.368988	0.051734
495.359009	0.042886
496.359985	0.042685
497.369995	0.038462
498.390991	0.033384
499.420990	0.031875
500.463013	0.027903
501.515015	0.025189
502.578003	0.025691
503.652008	0.021267
504.737000	0.022926
505.834015	0.022222
506.942993	0.020161
508.062988	0.018301
509.196014	0.016139
510.341003	0.015485
511.498993	0.017898
512.669006	0.018653
513.853027	0.028356
515.049011	0.076119
516.260010	0.088185
517.484009	0.024786
518.721985	0.011312
519.973999	0.011212
521.239990	0.013072
522.521973	0.012971
523.817993	0.012469
525.129028	0.012519
526.455994	0.011966
527.797974	0.012066
529.156982	0.011413
530.531006	0.011815
531.921997	0.012016
533.330017	0.013575
534.755005	0.014379
536.197021	0.017195
537.656006	0.022826
539.132996	0.028456
540.629028	0.031423
542.142029	0.028255
543.674988	0.025591
545.226013	0.019105
546.796021	0.015435
548.385986	0.011916
549.994995	0.011815
551.625000	0.011664
553.275024	0.009150
554.945984	0.008346
556.637024	0.008296
558.349976	0.006385
560.083984	0.006838
561.841003	0.005782
563.619019	0.004575
565.419983	0.004877
567.244019	0.007340
569.091003	0.009301
570.960999	0.010005
572.854980	0.014027
574.773010	0.013524
576.716003	0.014781
578.682983	0.019105
580.676025	0.025088
582.693970	0.038311
584.737000	0.046657
586.807007	0.046455
588.903015	0.033635
591.026001	0.028155
593.176025	0.020613
595.354004	0.019859
597.559021	0.021971
599.793030	0.031373
602.054993	0.047109
604.346985	0.063198
606.666992	0.104726
609.017029	0.101307
611.398010	0.066616
613.807983	0.051081
616.250000	0.050478
618.721985	0.058874
621.226013	0.092509
623.762024	0.162343
626.330017	0.256963
628.931030	0.497034
631.565002	0.652791
634.232971	0.297888
636.934021	0.074610
639.669983	0.032680
642.440002	0.024384
645.245972	0.018301
648.085999	0.015334
650.963013	0.014731
653.875977	0.013675
656.825989	0.009653
659.812988	0.007190
662.836975	0.005480
665.898987	0.004726
669.000000	0.004525
