# PHILIPS Diazo Metal Halide Lamp with Mercury, iron and cobalt iodides
#
#    Spectral data Copyright (c) 1998-2009 by I.N. Galidakis          
#                                                                     
#    Extracted from page:                                             
#    <http://ioannis.virtualcomposer2000.com/spectroscope/amici.html> 
#                                                                     
#    This data is distributed in the hope that it will be useful,     
#    but WITHOUT ANY WARRANTY; without even the implied warranty of   
#    MERCHANTABILITY or FITNESS FOR A PARTICULAR PURPOSE.  See the    
#    CCL 3.0 Creative Commons License 3.0 for more details.           
#                                                                     
#    You should have received a copy of the CCL 3.0                   
#    along with this program.  If not, see:                           
#    <http://creativecommons.org/licenses/by/3.0/>.                   
#
404.756989	0.108597
404.901001	0.167320
405.054993	0.208145
405.221008	0.228909
405.398010	0.239568
405.584991	0.221619
405.782013	0.180845
405.989990	0.142484
406.208008	0.133635
406.436005	0.145601
406.674011	0.159578
406.920990	0.143037
407.177002	0.151684
407.442993	0.194872
407.717010	0.208497
408.000000	0.300050
408.291992	0.321569
408.592010	0.456260
408.901001	0.540523
409.217987	0.451483
409.541992	0.416390
409.875000	0.491051
410.214996	0.496380
410.562988	0.465863
410.917999	0.556159
411.279999	0.476270
411.649994	0.422272
412.026001	0.388587
412.408997	0.366214
412.799011	0.328959
413.195007	0.348768
413.596985	0.486928
414.006012	0.508396
414.420990	0.513021
414.842010	0.540975
415.269012	0.562896
415.701996	0.525691
416.140015	0.558019
416.584015	0.615787
417.032990	0.536199
417.487000	0.507692
417.946991	0.519960
418.411987	0.532478
418.881989	0.567320
419.355988	0.590095
419.835999	0.569532
420.320007	0.589844
420.808990	0.513826
421.302002	0.560533
421.799988	0.641629
422.302002	0.595223
422.808990	0.603670
423.319000	0.566264
423.834015	0.657416
424.352997	0.648316
424.876007	0.549271
425.402008	0.555103
425.933014	0.584716
426.467010	0.618099
427.005005	0.585922
427.546997	0.625088
428.092010	0.684214
428.640991	0.562393
429.194000	0.553393
429.750000	0.687230
430.308990	0.607239
430.872009	0.561237
431.437988	0.567320
432.006989	0.542182
432.579010	0.594218
433.154999	0.740825
433.734009	0.697135
434.316010	0.565409
434.901001	0.566063
435.489990	0.641680
436.080994	0.764756
436.675995	0.613876
437.273987	0.565007
437.873993	0.672449
438.477997	0.721871
439.084991	0.665058
439.695007	0.665511
440.307007	0.648718
440.923004	0.655254
441.541992	0.636802
442.164001	0.661690
442.789001	0.645551
443.416992	0.607441
444.048004	0.643339
444.683014	0.624736
445.320007	0.592006
445.959991	0.597084
446.604004	0.584565
447.251007	0.595374
447.901001	0.568929
448.553986	0.480040
449.209991	0.510608
449.869995	0.505178
450.532990	0.575163
451.200012	0.706084
451.869995	0.585772
452.542999	0.502413
453.220001	0.605229
453.901001	0.583559
454.584991	0.531573
455.273010	0.533484
455.964996	0.551835
456.660004	0.561186
457.359009	0.537456
458.062988	0.581297
458.769989	0.587028
459.480988	0.519859
460.196991	0.527954
460.915985	0.579638
461.640015	0.581900
462.368988	0.544897
463.101990	0.573102
463.838989	0.561488
464.580994	0.572247
465.328003	0.551030
466.079987	0.550327
466.835999	0.517697
467.597992	0.481699
468.364990	0.481348
469.136993	0.490598
469.914001	0.383057
470.696991	0.454450
471.484985	0.547612
472.278992	0.476270
473.079010	0.458221
473.885010	0.398089
474.696991	0.426445
475.515015	0.470739
476.338989	0.456913
477.170013	0.502212
478.007996	0.374258
478.851990	0.424535
479.703003	0.428959
480.559998	0.334088
481.424988	0.537506
482.298004	0.453947
483.177002	0.408999
484.063995	0.572046
484.959015	0.609854
485.862000	0.515686
486.773010	0.651333
487.691986	0.389643
488.619995	0.442082
489.554993	0.683811
490.500000	0.494872
491.453003	0.389894
492.415985	0.469633
493.388000	0.694018
494.368988	0.323580
495.359009	0.355204
496.359985	0.386878
497.369995	0.429060
498.390991	0.603972
499.420990	0.332278
500.463013	0.293162
501.515015	0.470086
502.578003	0.425792
503.652008	0.334942
504.737000	0.415385
505.834015	0.376270
506.942993	0.351886
508.062988	0.510457
509.196014	0.372449
510.341003	0.491403
511.498993	0.541729
512.669006	0.407089
513.853027	0.627250
515.049011	0.518552
516.260010	0.504022
517.484009	0.585068
518.721985	0.555103
519.973999	0.615535
521.239990	0.539266
522.521973	0.395123
523.817993	0.632881
525.129028	0.617999
526.455994	0.414178
527.797974	0.379588
529.156982	0.486526
530.531006	0.623077
531.921997	0.751936
533.330017	0.760382
534.755005	0.621116
536.197021	0.532579
537.656006	0.535646
539.132996	0.472600
540.629028	0.440372
542.142029	0.466416
543.674988	0.595475
545.226013	0.500101
546.796021	0.389542
548.385986	0.385872
549.994995	0.350176
551.625000	0.401206
553.275024	0.329513
554.945984	0.365460
556.637024	0.389392
558.349976	0.354048
560.083984	0.383911
561.841003	0.317547
563.619019	0.270085
565.419983	0.270739
567.244019	0.251282
569.091003	0.253796
570.960999	0.196581
572.854980	0.173555
574.773010	0.277677
576.716003	0.393414
578.682983	0.435998
580.676025	0.268326
582.693970	0.292408
584.737000	0.286626
586.807007	0.391855
588.903015	0.568376
591.026001	0.592659
593.176025	0.380845
595.354004	0.323580
597.559021	0.317697
599.793030	0.301860
602.054993	0.282051
604.346985	0.247813
606.666992	0.243841
609.017029	0.231172
611.398010	0.244998
613.807983	0.214228
616.250000	0.199397
618.721985	0.146606
621.226013	0.131976
623.762024	0.109251
626.330017	0.098341
628.931030	0.080091
631.565002	0.057617
634.232971	0.042785
636.934021	0.035696
639.669983	0.029211
642.440002	0.022272
645.245972	0.018200
648.085999	0.007541
650.963013	0.007391
653.875977	0.006536
656.825989	0.007039
659.812988	0.007793
662.836975	0.007793
665.898987	0.007692
669.000000	0.007190
