# Sylvania F6T5/BLB 8W Black light blue fluorescent
#
#    Spectral data Copyright (c) 1998-2009 by I.N. Galidakis          
#                                                                     
#    Extracted from page:                                             
#    <http://ioannis.virtualcomposer2000.com/spectroscope/amici.html> 
#                                                                     
#    This data is distributed in the hope that it will be useful,     
#    but WITHOUT ANY WARRANTY; without even the implied warranty of   
#    MERCHANTABILITY or FITNESS FOR A PARTICULAR PURPOSE.  See the    
#    CCL 3.0 Creative Commons License 3.0 for more details.           
#                                                                     
#    You should have received a copy of the CCL 3.0                   
#    along with this program.  If not, see:                           
#    <http://creativecommons.org/licenses/by/3.0/>.                   
#
404.756989	0.108195
404.901001	0.124686
405.054993	0.183208
405.221008	0.283459
405.398010	0.385973
405.584991	0.466566
405.782013	0.665460
405.989990	0.562343
406.208008	0.712871
406.436005	0.739719
406.674011	0.642836
406.920990	0.398894
407.177002	0.362192
407.442993	0.386526
407.717010	0.406083
408.000000	0.442232
408.291992	0.457818
408.592010	0.596229
408.901001	0.609854
409.217987	0.502615
409.541992	0.428607
409.875000	0.439216
410.214996	0.472147
410.562988	0.478985
410.917999	0.477677
411.279999	0.494067
411.649994	0.509000
412.026001	0.517597
412.408997	0.520714
412.799011	0.522323
413.195007	0.532126
413.596985	0.536903
414.006012	0.536953
414.420990	0.538411
414.842010	0.544545
415.269012	0.548064
415.701996	0.552438
416.140015	0.553645
416.584015	0.552438
417.032990	0.551432
417.487000	0.549723
417.946991	0.550427
418.411987	0.552790
418.881989	0.555404
419.355988	0.556108
419.835999	0.555455
420.320007	0.554902
420.808990	0.555706
421.302002	0.553243
421.799988	0.552388
422.302002	0.555203
422.808990	0.552488
423.319000	0.550829
423.834015	0.552891
424.352997	0.550528
424.876007	0.544696
425.402008	0.543439
425.933014	0.547461
426.467010	0.541327
427.005005	0.536802
427.546997	0.530568
428.092010	0.524836
428.640991	0.519206
429.194000	0.511915
429.750000	0.506234
430.308990	0.504274
430.872009	0.507743
431.437988	0.500955
432.006989	0.521870
432.579010	0.513927
433.154999	0.507391
433.734009	0.522624
434.316010	0.527401
434.901001	0.537858
435.489990	0.704273
436.080994	0.954651
436.675995	0.933083
437.273987	0.581096
437.873993	0.417647
438.477997	0.486023
439.084991	0.445199
439.695007	0.417748
440.307007	0.389442
440.923004	0.371845
441.541992	0.357064
442.164001	0.336601
442.789001	0.304977
443.416992	0.295023
444.048004	0.290598
444.683014	0.282906
445.320007	0.261891
445.959991	0.251282
446.604004	0.244344
447.251007	0.230267
447.901001	0.220463
448.553986	0.208999
449.209991	0.201006
449.869995	0.193715
450.532990	0.188738
451.200012	0.179789
451.869995	0.172449
452.542999	0.162242
453.220001	0.157818
453.901001	0.150779
454.584991	0.147310
455.273010	0.141176
455.964996	0.129814
456.660004	0.127149
457.359009	0.122675
458.062988	0.119558
458.769989	0.114279
459.480988	0.110407
460.196991	0.104123
460.915985	0.100201
461.640015	0.098844
462.368988	0.095375
463.101990	0.089643
463.838989	0.085973
464.580994	0.082453
465.328003	0.079739
466.079987	0.076772
466.835999	0.074761
467.597992	0.074409
468.364990	0.074258
469.136993	0.073102
469.914001	0.071745
470.696991	0.069080
471.484985	0.066968
472.278992	0.062242
473.079010	0.061036
473.885010	0.060030
474.696991	0.058673
475.515015	0.054399
476.338989	0.052338
477.170013	0.048165
478.007996	0.047562
478.851990	0.047210
479.703003	0.047260
480.559998	0.040473
481.424988	0.040221
482.298004	0.038864
483.177002	0.037054
484.063995	0.035696
484.959015	0.034088
485.862000	0.032277
486.773010	0.031272
487.691986	0.029412
488.619995	0.029663
489.554993	0.028507
490.500000	0.027350
491.453003	0.031322
492.415985	0.037707
493.388000	0.039467
494.368988	0.037707
495.359009	0.023630
496.359985	0.019608
497.369995	0.013474
498.390991	0.010106
499.420990	0.008748
500.463013	0.009904
501.515015	0.013876
502.578003	0.016742
503.652008	0.013122
504.737000	0.012921
505.834015	0.012720
506.942993	0.012519
508.062988	0.012117
509.196014	0.012016
510.341003	0.011815
511.498993	0.011714
512.669006	0.012066
513.853027	0.011865
515.049011	0.010558
516.260010	0.009251
517.484009	0.008849
518.721985	0.008145
519.973999	0.006838
521.239990	0.006737
522.521973	0.005329
523.817993	0.005329
525.129028	0.005732
526.455994	0.005732
527.797974	0.005732
529.156982	0.006134
530.531006	0.006536
531.921997	0.006536
533.330017	0.013122
534.755005	0.015083
536.197021	0.019608
537.656006	0.016994
539.132996	0.029160
540.629028	0.070940
542.142029	0.200603
543.674988	0.404475
545.226013	0.376873
546.796021	0.119356
548.385986	0.013927
549.994995	0.017546
551.625000	0.014681
553.275024	0.017697
554.945984	0.009754
556.637024	0.007541
558.349976	0.004525
560.083984	0.004525
561.841003	0.004927
563.619019	0.004927
565.419983	0.004927
567.244019	0.005329
569.091003	0.005329
570.960999	0.005329
572.854980	0.008497
574.773010	0.017647
576.716003	0.027652
578.682983	0.023781
580.676025	0.011262
582.693970	0.004676
584.737000	0.002765
586.807007	0.004977
588.903015	0.004223
591.026001	0.004223
593.176025	0.004223
595.354004	0.004223
597.559021	0.004223
599.793030	0.004223
602.054993	0.004223
604.346985	0.004223
606.666992	0.000000
609.017029	0.000000
611.398010	0.000000
613.807983	0.000000
616.250000	0.000000
618.721985	0.000000
621.226013	0.000000
623.762024	0.000000
626.330017	0.007843
628.931030	0.007843
631.565002	0.007843
634.232971	0.007843
636.934021	0.007843
639.669983	0.007843
642.440002	0.007843
645.245972	0.007843
648.085999	0.007843
650.963013	0.007843
653.875977	0.007843
656.825989	0.007843
659.812988	0.007843
662.836975	0.007843
665.898987	0.007843
669.000000	0.007843
