# High Pressure Mercury Warm Deluxe light 1.4.3 absorbed through blue Cobalt glass
#
#    Spectral data Copyright (c) 1998-2009 by I.N. Galidakis          
#                                                                     
#    Extracted from page:                                             
#    <http://ioannis.virtualcomposer2000.com/spectroscope/amici.html> 
#                                                                     
#    This data is distributed in the hope that it will be useful,     
#    but WITHOUT ANY WARRANTY; without even the implied warranty of   
#    MERCHANTABILITY or FITNESS FOR A PARTICULAR PURPOSE.  See the    
#    CCL 3.0 Creative Commons License 3.0 for more details.           
#                                                                     
#    You should have received a copy of the CCL 3.0                   
#    along with this program.  If not, see:                           
#    <http://creativecommons.org/licenses/by/3.0/>.                   
#
404.756989	0.879588
404.901001	0.973756
405.054993	0.980242
405.221008	0.962896
405.398010	0.875214
405.584991	0.801961
405.782013	0.711665
405.989990	0.641428
406.208008	0.718049
406.436005	0.864154
406.674011	0.805028
406.920990	0.646003
407.177002	0.580543
407.442993	0.596128
407.717010	0.587581
408.000000	0.587028
408.291992	0.592056
408.592010	0.606385
408.901001	0.598240
409.217987	0.596430
409.541992	0.595022
409.875000	0.599598
410.214996	0.609602
410.562988	0.608999
410.917999	0.600502
411.279999	0.598190
411.649994	0.603620
412.026001	0.606686
412.408997	0.606938
412.799011	0.608597
413.195007	0.607239
413.596985	0.609703
414.006012	0.613122
414.420990	0.617144
414.842010	0.610960
415.269012	0.613775
415.701996	0.614882
416.140015	0.616591
416.584015	0.616541
417.032990	0.617597
417.487000	0.617094
417.946991	0.615485
418.411987	0.623731
418.881989	0.624787
419.355988	0.622876
419.835999	0.620513
420.320007	0.621770
420.808990	0.625289
421.302002	0.626044
421.799988	0.625591
422.302002	0.630870
422.808990	0.631423
423.319000	0.628558
423.834015	0.626295
424.352997	0.624183
424.876007	0.627049
425.402008	0.630518
425.933014	0.636200
426.467010	0.651031
427.005005	0.669030
427.546997	0.679186
428.092010	0.683811
428.640991	0.693012
429.194000	0.734590
429.750000	0.814228
430.308990	0.949724
430.872009	0.979839
431.437988	0.976370
432.006989	0.989995
432.579010	0.987833
433.154999	0.983861
433.734009	0.990196
434.316010	0.969030
434.901001	0.914983
435.489990	0.824484
436.080994	0.765510
436.675995	0.740272
437.273987	0.754651
437.873993	0.730669
438.477997	0.723681
439.084991	0.733082
439.695007	0.727200
440.307007	0.728205
440.923004	0.720815
441.541992	0.715486
442.164001	0.702263
442.789001	0.691453
443.416992	0.678130
444.048004	0.674963
444.683014	0.665611
445.320007	0.660081
445.959991	0.654601
446.604004	0.655707
447.251007	0.650629
447.901001	0.646255
448.553986	0.635144
449.209991	0.629010
449.869995	0.622424
450.532990	0.621318
451.200012	0.617547
451.869995	0.617295
452.542999	0.616490
453.220001	0.617446
453.901001	0.612669
454.584991	0.610256
455.273010	0.606385
455.964996	0.603720
456.660004	0.600603
457.359009	0.598290
458.062988	0.591051
458.769989	0.587833
459.480988	0.581599
460.196991	0.582805
460.915985	0.578582
461.640015	0.580342
462.368988	0.579789
463.101990	0.586576
463.838989	0.587582
464.580994	0.590950
465.328003	0.591403
466.079987	0.598793
466.835999	0.603117
467.597992	0.602162
468.364990	0.602363
469.136993	0.603569
469.914001	0.602363
470.696991	0.600100
471.484985	0.596983
472.278992	0.593514
473.079010	0.590849
473.885010	0.591151
474.696991	0.592458
475.515015	0.593112
476.338989	0.593212
477.170013	0.594067
478.007996	0.594218
478.851990	0.596078
479.703003	0.598240
480.559998	0.592056
481.424988	0.581548
482.298004	0.573756
483.177002	0.574459
484.063995	0.619558
484.959015	0.644143
485.862000	0.579336
486.773010	0.511513
487.691986	0.529009
488.619995	0.594972
489.554993	0.557114
490.500000	0.510105
491.453003	0.525339
492.415985	0.500955
493.388000	0.478432
494.368988	0.453695
495.359009	0.443540
496.359985	0.407391
497.369995	0.370136
498.390991	0.323579
499.420990	0.316742
500.463013	0.318200
501.515015	0.313977
502.578003	0.309050
503.652008	0.299899
504.737000	0.291453
505.834015	0.278632
506.942993	0.270035
508.062988	0.263047
509.196014	0.252438
510.341003	0.239266
511.498993	0.229161
512.669006	0.217999
513.853027	0.210659
515.049011	0.197888
516.260010	0.185923
517.484009	0.176471
518.721985	0.174208
519.973999	0.179286
521.239990	0.185671
522.521973	0.189291
523.817993	0.196631
525.129028	0.239065
526.455994	0.229563
527.797974	0.227702
529.156982	0.218451
530.531006	0.252287
531.921997	0.473052
533.330017	0.628155
534.755005	0.580845
536.197021	0.445199
537.656006	0.328909
539.132996	0.297637
540.629028	0.286124
542.142029	0.274409
543.674988	0.273856
545.226013	0.273957
546.796021	0.259125
548.385986	0.243690
549.994995	0.229814
551.625000	0.217245
553.275024	0.210256
554.945984	0.205128
556.637024	0.212167
558.349976	0.271644
560.083984	0.572448
561.841003	0.667320
563.619019	0.610055
565.419983	0.316491
567.244019	0.123127
569.091003	0.133937
570.960999	0.131373
572.854980	0.136048
574.773010	0.169331
576.716003	0.167572
578.682983	0.124032
580.676025	0.096028
582.693970	0.087733
584.737000	0.083710
586.807007	0.094218
588.903015	0.125993
591.026001	0.179085
593.176025	0.278984
595.354004	0.342383
597.559021	0.395475
599.793030	0.353796
602.054993	0.207089
604.346985	0.110860
606.666992	0.089291
609.017029	0.084817
611.398010	0.073052
613.807983	0.063449
616.250000	0.061790
618.721985	0.061740
621.226013	0.070035
623.762024	0.071644
626.330017	0.070739
628.931030	0.071795
631.565002	0.079588
634.232971	0.081498
636.934021	0.074208
639.669983	0.069583
642.440002	0.075817
645.245972	0.083107
648.085999	0.089191
650.963013	0.112318
653.875977	0.163147
656.825989	0.251734
659.812988	0.389090
662.836975	0.611966
665.898987	0.557215
669.000000	0.457365
