# OSRAM HQI-TS 75W/WDL Metal Halide lamp with Mercury, sodium, thallium, indium and tin iodides, from 
#
#    Spectral data Copyright (c) 1998-2009 by I.N. Galidakis          
#                                                                     
#    Extracted from page:                                             
#    <http://ioannis.virtualcomposer2000.com/spectroscope/amici.html> 
#                                                                     
#    This data is distributed in the hope that it will be useful,     
#    but WITHOUT ANY WARRANTY; without even the implied warranty of   
#    MERCHANTABILITY or FITNESS FOR A PARTICULAR PURPOSE.  See the    
#    CCL 3.0 Creative Commons License 3.0 for more details.           
#                                                                     
#    You should have received a copy of the CCL 3.0                   
#    along with this program.  If not, see:                           
#    <http://creativecommons.org/licenses/by/3.0/>.                   
#
404.756989	0.065661
404.901001	0.065661
405.054993	0.042132
405.221008	0.039366
405.398010	0.060030
405.584991	0.084414
405.782013	0.110307
405.989990	0.118502
406.208008	0.105581
406.436005	0.084264
406.674011	0.053796
406.920990	0.051383
407.177002	0.058421
407.442993	0.061790
407.717010	0.066968
408.000000	0.072750
408.291992	0.080996
408.592010	0.089794
408.901001	0.113122
409.217987	0.142534
409.541992	0.186275
409.875000	0.208195
410.214996	0.219005
410.562988	0.212418
410.917999	0.182755
411.279999	0.159628
411.649994	0.148014
412.026001	0.141981
412.408997	0.140825
412.799011	0.138612
413.195007	0.138663
413.596985	0.139065
414.006012	0.137808
414.420990	0.135143
414.842010	0.140523
415.269012	0.144997
415.701996	0.150830
416.140015	0.159125
416.584015	0.165008
417.032990	0.172700
417.487000	0.175063
417.946991	0.178381
418.411987	0.192408
418.881989	0.199196
419.355988	0.209502
419.835999	0.216843
420.320007	0.228054
420.808990	0.236048
421.302002	0.244595
421.799988	0.250629
422.302002	0.248366
422.808990	0.253042
423.319000	0.261840
423.834015	0.271996
424.352997	0.283610
424.876007	0.291654
425.402008	0.300754
425.933014	0.304324
426.467010	0.315184
427.005005	0.321217
427.546997	0.326596
428.092010	0.332177
428.640991	0.341629
429.194000	0.350830
429.750000	0.364404
430.308990	0.374912
430.872009	0.382906
431.437988	0.396380
432.006989	0.407240
432.579010	0.424585
433.154999	0.452791
433.734009	0.478432
434.316010	0.516139
434.901001	0.529009
435.489990	0.567420
436.080994	0.620714
436.675995	0.590648
437.273987	0.542031
437.873993	0.537456
438.477997	0.530970
439.084991	0.532730
439.695007	0.534841
440.307007	0.538411
440.923004	0.539266
441.541992	0.539366
442.164001	0.539718
442.789001	0.542835
443.416992	0.545450
444.048004	0.548466
444.683014	0.548868
445.320007	0.544545
445.959991	0.543338
446.604004	0.533685
447.251007	0.527602
447.901001	0.528255
448.553986	0.531523
449.209991	0.536249
449.869995	0.537657
450.532990	0.542936
451.200012	0.609602
451.869995	0.663449
452.542999	0.656813
453.220001	0.642785
453.901001	0.605027
454.584991	0.585068
455.273010	0.525088
455.964996	0.522222
456.660004	0.496732
457.359009	0.467119
458.062988	0.454701
458.769989	0.456059
459.480988	0.460885
460.196991	0.470991
460.915985	0.478884
461.640015	0.492811
462.368988	0.495174
463.101990	0.491604
463.838989	0.495123
464.580994	0.509804
465.328003	0.519055
466.079987	0.527853
466.835999	0.535495
467.597992	0.545400
468.364990	0.547411
469.136993	0.548215
469.914001	0.539517
470.696991	0.537959
471.484985	0.529914
472.278992	0.526144
473.079010	0.516340
473.885010	0.517044
474.696991	0.505480
475.515015	0.499347
476.338989	0.490950
477.170013	0.490046
478.007996	0.480744
478.851990	0.474208
479.703003	0.464656
480.559998	0.463399
481.424988	0.459980
482.298004	0.465661
483.177002	0.465360
484.063995	0.468980
484.959015	0.464354
485.862000	0.458120
486.773010	0.448014
487.691986	0.443841
488.619995	0.432177
489.554993	0.423932
490.500000	0.412569
491.453003	0.409100
492.415985	0.400251
493.388000	0.397537
494.368988	0.385420
495.359009	0.385520
496.359985	0.381951
497.369995	0.393162
498.390991	0.395073
499.420990	0.383761
500.463013	0.360835
501.515015	0.347310
502.578003	0.349925
503.652008	0.352489
504.737000	0.347310
505.834015	0.335847
506.942993	0.324233
508.062988	0.315736
509.196014	0.312016
510.341003	0.312016
511.498993	0.314882
512.669006	0.317848
513.853027	0.326797
515.049011	0.334037
516.260010	0.339467
517.484009	0.342785
518.721985	0.350226
519.973999	0.355053
521.239990	0.358220
522.521973	0.357667
523.817993	0.356310
525.129028	0.355857
526.455994	0.356260
527.797974	0.357818
529.156982	0.358874
530.531006	0.359678
531.921997	0.359880
533.330017	0.467270
534.755005	0.629512
536.197021	0.600251
537.656006	0.553293
539.132996	0.512519
540.629028	0.409904
542.142029	0.361187
543.674988	0.366164
545.226013	0.504223
546.796021	0.475315
548.385986	0.377677
549.994995	0.353193
551.625000	0.351483
553.275024	0.345149
554.945984	0.343489
556.637024	0.344646
558.349976	0.342635
560.083984	0.339568
561.841003	0.388939
563.619019	0.395726
565.419983	0.351433
567.244019	0.393313
569.091003	0.441026
570.960999	0.338311
572.854980	0.309854
574.773010	0.345651
576.716003	0.397184
578.682983	0.434188
580.676025	0.421971
582.693970	0.387431
584.737000	0.340624
586.807007	0.428708
588.903015	0.481348
591.026001	0.492559
593.176025	0.476622
595.354004	0.473907
597.559021	0.477476
599.793030	0.498492
602.054993	0.512116
604.346985	0.526345
606.666992	0.533132
609.017029	0.558170
611.398010	0.569482
613.807983	0.569180
616.250000	0.557114
618.721985	0.543640
621.226013	0.532981
623.762024	0.528155
626.330017	0.518100
628.931030	0.511966
631.565002	0.507642
634.232971	0.501106
636.934021	0.489794
639.669983	0.484616
642.440002	0.485319
645.245972	0.479588
648.085999	0.455757
650.963013	0.452137
653.875977	0.451886
656.825989	0.433886
659.812988	0.396631
662.836975	0.375566
665.898987	0.426446
669.000000	0.119859
