# Monochromatic emission from a Red Laser diode
#
#    Spectral data Copyright (c) 1998-2009 by I.N. Galidakis          
#                                                                     
#    Extracted from page:                                             
#    <http://ioannis.virtualcomposer2000.com/spectroscope/amici.html> 
#                                                                     
#    This data is distributed in the hope that it will be useful,     
#    but WITHOUT ANY WARRANTY; without even the implied warranty of   
#    MERCHANTABILITY or FITNESS FOR A PARTICULAR PURPOSE.  See the    
#    CCL 3.0 Creative Commons License 3.0 for more details.           
#                                                                     
#    You should have received a copy of the CCL 3.0                   
#    along with this program.  If not, see:                           
#    <http://creativecommons.org/licenses/by/3.0/>.                   
#
404.756989	0.015686
404.901001	0.015686
405.054993	0.000000
405.221008	0.000000
405.398010	0.000000
405.584991	0.000000
405.782013	0.000000
405.989990	0.000000
406.208008	0.000000
406.436005	0.000000
406.674011	0.000000
406.920990	0.000000
407.177002	0.000000
407.442993	0.000000
407.717010	0.000000
408.000000	0.000000
408.291992	0.000000
408.592010	0.000000
408.901001	0.000804
409.217987	0.000804
409.541992	0.000804
409.875000	0.000804
410.214996	0.000804
410.562988	0.000804
410.917999	0.000804
411.279999	0.000804
411.649994	0.002815
412.026001	0.002815
412.408997	0.002815
412.799011	0.002815
413.195007	0.002815
413.596985	0.002815
414.006012	0.002815
414.420990	0.002815
414.842010	0.002815
415.269012	0.002815
415.701996	0.002815
416.140015	0.002815
416.584015	0.002815
417.032990	0.002815
417.487000	0.002815
417.946991	0.002815
418.411987	0.005229
418.881989	0.005229
419.355988	0.005229
419.835999	0.005229
420.320007	0.005229
420.808990	0.005229
421.302002	0.005229
421.799988	0.005229
422.302002	0.004927
422.808990	0.004424
423.319000	0.003972
423.834015	0.003620
424.352997	0.003419
424.876007	0.003670
425.402008	0.004223
425.933014	0.004776
426.467010	0.006033
427.005005	0.006033
427.546997	0.006033
428.092010	0.006033
428.640991	0.006033
429.194000	0.006033
429.750000	0.006033
430.308990	0.006033
430.872009	0.005229
431.437988	0.005229
432.006989	0.005229
432.579010	0.005229
433.154999	0.005229
433.734009	0.005229
434.316010	0.005229
434.901001	0.005229
435.489990	0.004374
436.080994	0.004374
436.675995	0.004374
437.273987	0.004374
437.873993	0.004374
438.477997	0.004374
439.084991	0.004374
439.695007	0.004374
440.307007	0.002011
440.923004	0.002011
441.541992	0.002011
442.164001	0.002011
442.789001	0.002011
443.416992	0.002011
444.048004	0.002011
444.683014	0.002011
445.320007	0.001207
445.959991	0.001207
446.604004	0.001207
447.251007	0.001207
447.901001	0.001207
448.553986	0.001207
449.209991	0.001207
449.869995	0.001207
450.532990	0.002815
451.200012	0.002815
451.869995	0.002815
452.542999	0.002815
453.220001	0.002815
453.901001	0.002815
454.584991	0.002815
455.273010	0.002815
455.964996	0.002815
456.660004	0.002815
457.359009	0.003218
458.062988	0.003620
458.769989	0.003620
459.480988	0.004022
460.196991	0.004424
460.915985	0.004424
461.640015	0.003670
462.368988	0.003670
463.101990	0.003670
463.838989	0.003670
464.580994	0.003670
465.328003	0.003670
466.079987	0.003670
466.835999	0.003670
467.597992	0.005882
468.364990	0.005782
469.136993	0.005681
469.914001	0.005581
470.696991	0.005631
471.484985	0.005681
472.278992	0.005681
473.079010	0.005581
473.885010	0.005480
474.696991	0.005430
475.515015	0.005430
476.338989	0.005430
477.170013	0.005430
478.007996	0.005430
478.851990	0.005430
479.703003	0.005480
480.559998	0.006234
481.424988	0.006234
482.298004	0.006234
483.177002	0.006234
484.063995	0.006234
484.959015	0.006234
485.862000	0.006234
486.773010	0.006234
487.691986	0.003570
488.619995	0.003570
489.554993	0.003570
490.500000	0.003570
491.453003	0.003570
492.415985	0.003570
493.388000	0.003570
494.368988	0.003570
495.359009	0.002815
496.359985	0.002815
497.369995	0.002815
498.390991	0.002815
499.420990	0.002815
500.463013	0.002815
501.515015	0.002815
502.578003	0.002815
503.652008	0.002815
504.737000	0.002815
505.834015	0.002815
506.942993	0.002815
508.062988	0.002815
509.196014	0.002815
510.341003	0.002815
511.498993	0.002815
512.669006	0.002011
513.853027	0.002011
515.049011	0.002011
516.260010	0.002011
517.484009	0.002011
518.721985	0.002011
519.973999	0.002011
521.239990	0.002011
522.521973	0.002413
523.817993	0.002413
525.129028	0.002413
526.455994	0.002413
527.797974	0.002413
529.156982	0.002413
530.531006	0.002413
531.921997	0.002413
533.330017	0.003218
534.755005	0.003218
536.197021	0.003218
537.656006	0.003218
539.132996	0.003218
540.629028	0.003218
542.142029	0.003218
543.674988	0.003218
545.226013	0.003218
546.796021	0.003218
548.385986	0.003218
549.994995	0.003218
551.625000	0.003218
553.275024	0.003218
554.945984	0.003218
556.637024	0.003218
558.349976	0.004575
560.083984	0.004726
561.841003	0.007793
563.619019	0.010457
565.419983	0.008949
567.244019	0.013675
569.091003	0.018753
570.960999	0.021518
572.854980	0.034490
574.773010	0.040422
576.716003	0.050628
578.682983	0.060986
580.676025	0.071393
582.693970	0.080040
584.737000	0.086375
586.807007	0.091805
588.903015	0.107391
591.026001	0.115787
593.176025	0.127049
595.354004	0.141880
597.559021	0.159377
599.793030	0.174309
602.054993	0.187280
604.346985	0.196481
606.666992	0.216993
609.017029	0.227753
611.398010	0.240774
613.807983	0.254299
616.250000	0.269985
618.721985	0.282504
621.226013	0.294872
623.762024	0.303117
626.330017	0.326345
628.931030	0.342283
631.565002	0.365008
634.232971	0.379839
636.934021	0.397838
639.669983	0.421066
642.440002	0.451332
645.245972	0.467572
648.085999	0.519457
650.963013	0.534289
653.875977	0.700301
656.825989	0.792509
659.812988	0.515284
662.836975	0.476169
665.898987	0.425289
669.000000	0.380744
