# PHILIPS SDW-T 100W Super High Pressure White Sodium Lamp
#
#    Spectral data Copyright (c) 1998-2009 by I.N. Galidakis          
#                                                                     
#    Extracted from page:                                             
#    <http://ioannis.virtualcomposer2000.com/spectroscope/amici.html> 
#                                                                     
#    This data is distributed in the hope that it will be useful,     
#    but WITHOUT ANY WARRANTY; without even the implied warranty of   
#    MERCHANTABILITY or FITNESS FOR A PARTICULAR PURPOSE.  See the    
#    CCL 3.0 Creative Commons License 3.0 for more details.           
#                                                                     
#    You should have received a copy of the CCL 3.0                   
#    along with this program.  If not, see:                           
#    <http://creativecommons.org/licenses/by/3.0/>.                   
#
404.756989	0.000000
404.901001	0.000000
405.054993	0.000000
405.221008	0.000000
405.398010	0.000000
405.584991	0.000000
405.782013	0.000000
405.989990	0.000000
406.208008	0.000000
406.436005	0.000000
406.674011	0.000000
406.920990	0.000000
407.177002	0.000000
407.442993	0.000000
407.717010	0.000000
408.000000	0.000000
408.291992	0.000000
408.592010	0.000000
408.901001	0.000855
409.217987	0.001207
409.541992	0.001408
409.875000	0.001860
410.214996	0.003369
410.562988	0.004374
410.917999	0.004877
411.279999	0.005229
411.649994	0.007139
412.026001	0.011664
412.408997	0.014681
412.799011	0.018753
413.195007	0.023278
413.596985	0.028306
414.006012	0.033032
414.420990	0.035596
414.842010	0.048115
415.269012	0.050126
415.701996	0.053595
416.140015	0.060583
416.584015	0.070689
417.032990	0.084113
417.487000	0.100201
417.946991	0.110458
418.411987	0.124937
418.881989	0.130065
419.355988	0.142836
419.835999	0.162695
420.320007	0.177174
420.808990	0.185722
421.302002	0.200503
421.799988	0.219658
422.302002	0.235747
422.808990	0.243690
423.319000	0.258673
423.834015	0.282403
424.352997	0.307190
424.876007	0.326395
425.402008	0.345701
425.933014	0.362896
426.467010	0.378984
427.005005	0.404625
427.546997	0.428356
428.092010	0.440422
428.640991	0.456360
429.194000	0.479286
429.750000	0.497386
430.308990	0.507039
430.872009	0.524635
431.437988	0.529160
432.006989	0.536098
432.579010	0.542433
433.154999	0.544595
433.734009	0.547461
434.316010	0.551684
434.901001	0.555404
435.489990	0.560985
436.080994	0.570337
436.675995	0.574912
437.273987	0.575415
437.873993	0.574761
438.477997	0.577124
439.084991	0.577526
439.695007	0.574007
440.307007	0.577778
440.923004	0.582303
441.541992	0.582504
442.164001	0.586677
442.789001	0.592559
443.416992	0.591855
444.048004	0.591252
444.683014	0.592861
445.320007	0.598542
445.959991	0.608597
446.604004	0.616088
447.251007	0.621669
447.901001	0.627552
448.553986	0.626747
449.209991	0.630921
449.869995	0.637808
450.532990	0.641026
451.200012	0.649121
451.869995	0.657014
452.542999	0.659779
453.220001	0.663550
453.901001	0.664555
454.584991	0.667522
455.273010	0.670689
455.964996	0.671192
456.660004	0.668477
457.359009	0.668980
458.062988	0.663701
458.769989	0.656059
459.480988	0.654852
460.196991	0.648065
460.915985	0.636451
461.640015	0.625993
462.368988	0.626798
463.101990	0.617697
463.838989	0.602212
464.580994	0.599095
465.328003	0.581699
466.079987	0.579688
466.835999	0.587984
467.597992	0.581196
468.364990	0.595022
469.136993	0.589241
469.914001	0.581749
470.696991	0.579990
471.484985	0.581699
472.278992	0.586375
473.079010	0.585973
473.885010	0.574158
474.696991	0.570488
475.515015	0.576772
476.338989	0.573404
477.170013	0.557013
478.007996	0.552036
478.851990	0.556561
479.703003	0.559527
480.559998	0.556159
481.424988	0.554349
482.298004	0.555605
483.177002	0.554952
484.063995	0.557063
484.959015	0.561488
485.862000	0.568778
486.773010	0.577476
487.691986	0.578079
488.619995	0.583358
489.554993	0.589090
490.500000	0.597586
491.453003	0.598843
492.415985	0.594520
493.388000	0.604122
494.368988	0.619859
495.359009	0.631574
496.359985	0.651785
497.369995	0.664555
498.390991	0.664756
499.420990	0.655053
500.463013	0.643339
501.515015	0.632127
502.578003	0.624535
503.652008	0.613474
504.737000	0.609452
505.834015	0.608496
506.942993	0.608597
508.062988	0.609452
509.196014	0.611815
510.341003	0.612820
511.498993	0.612921
512.669006	0.643087
513.853027	0.655154
515.049011	0.651433
516.260010	0.640473
517.484009	0.637004
518.721985	0.635446
519.973999	0.630669
521.239990	0.629513
522.521973	0.629714
523.817993	0.629362
525.129028	0.629814
526.455994	0.629412
527.797974	0.626898
529.156982	0.624133
530.531006	0.620814
531.921997	0.618250
533.330017	0.614027
534.755005	0.613122
536.197021	0.607239
537.656006	0.603519
539.132996	0.599698
540.629028	0.598944
542.142029	0.601960
543.674988	0.604273
545.226013	0.615988
546.796021	0.615485
548.385986	0.611161
549.994995	0.610055
551.625000	0.605279
553.275024	0.603770
554.945984	0.588386
556.637024	0.547260
558.349976	0.527199
560.083984	0.521015
561.841003	0.511966
563.619019	0.498492
565.419983	0.494972
567.244019	0.491101
569.091003	0.480392
570.960999	0.452037
572.854980	0.431473
574.773010	0.360684
576.716003	0.298793
578.682983	0.244243
580.676025	0.215837
582.693970	0.240322
584.737000	0.240473
586.807007	0.275415
588.903015	0.293816
591.026001	0.339065
593.176025	0.374057
595.354004	0.415133
597.559021	0.442735
599.793030	0.504826
602.054993	0.525641
604.346985	0.532529
606.666992	0.534540
609.017029	0.538210
611.398010	0.537958
613.807983	0.534288
616.250000	0.532629
618.721985	0.540774
621.226013	0.553494
623.762024	0.559125
626.330017	0.571041
628.931030	0.575566
631.565002	0.583509
634.232971	0.595425
636.934021	0.608748
639.669983	0.619055
642.440002	0.623680
645.245972	0.623178
648.085999	0.628205
650.963013	0.621719
653.875977	0.611865
656.825989	0.599598
659.812988	0.573906
662.836975	0.526596
665.898987	0.456511
669.000000	0.398542
