# Welsbach Gas Mantle modern, (without Thorium)
#
#    Spectral data Copyright (c) 1998-2009 by I.N. Galidakis          
#                                                                     
#    Extracted from page:                                             
#    <http://ioannis.virtualcomposer2000.com/spectroscope/amici.html> 
#                                                                     
#    This data is distributed in the hope that it will be useful,     
#    but WITHOUT ANY WARRANTY; without even the implied warranty of   
#    MERCHANTABILITY or FITNESS FOR A PARTICULAR PURPOSE.  See the    
#    CCL 3.0 Creative Commons License 3.0 for more details.           
#                                                                     
#    You should have received a copy of the CCL 3.0                   
#    along with this program.  If not, see:                           
#    <http://creativecommons.org/licenses/by/3.0/>.                   
#
404.756989	0.015686
404.901001	0.015686
405.054993	0.012871
405.221008	0.012469
405.398010	0.009553
405.584991	0.007039
405.782013	0.007039
405.989990	0.005329
406.208008	0.004022
406.436005	0.004424
406.674011	0.008044
406.920990	0.008044
407.177002	0.008095
407.442993	0.008145
407.717010	0.008195
408.000000	0.008044
408.291992	0.008195
408.592010	0.008446
408.901001	0.009452
409.217987	0.009050
409.541992	0.008245
409.875000	0.007843
410.214996	0.007843
410.562988	0.008245
410.917999	0.009050
411.279999	0.009452
411.649994	0.007692
412.026001	0.007340
412.408997	0.006888
412.799011	0.006536
413.195007	0.006536
413.596985	0.006888
414.006012	0.007340
414.420990	0.007692
414.842010	0.006234
415.269012	0.006234
415.701996	0.006234
416.140015	0.006234
416.584015	0.006234
417.032990	0.006234
417.487000	0.006234
417.946991	0.006234
418.411987	0.006234
418.881989	0.006938
419.355988	0.008497
419.835999	0.008396
420.320007	0.011161
420.808990	0.012066
421.302002	0.012519
421.799988	0.012418
422.302002	0.022524
422.808990	0.024334
423.319000	0.029110
423.834015	0.035244
424.352997	0.042031
424.876007	0.049271
425.402008	0.057014
425.933014	0.060986
426.467010	0.081398
427.005005	0.094168
427.546997	0.106536
428.092010	0.119859
428.640991	0.137858
429.194000	0.160633
429.750000	0.185923
430.308990	0.210558
430.872009	0.224887
431.437988	0.243690
432.006989	0.262695
432.579010	0.292961
433.154999	0.324485
433.734009	0.356662
434.316010	0.381900
434.901001	0.410709
435.489990	0.445852
436.080994	0.469130
436.675995	0.483610
437.273987	0.505430
437.873993	0.528507
438.477997	0.538863
439.084991	0.544042
439.695007	0.545600
440.307007	0.546958
440.923004	0.550528
441.541992	0.557768
442.164001	0.562896
442.789001	0.564153
443.416992	0.567471
444.048004	0.577577
444.683014	0.583610
445.320007	0.590648
445.959991	0.593866
446.604004	0.603368
447.251007	0.608999
447.901001	0.612971
448.553986	0.619356
449.209991	0.626043
449.869995	0.625742
450.532990	0.634389
451.200012	0.635646
451.869995	0.640473
452.542999	0.651635
453.220001	0.660986
453.901001	0.662042
454.584991	0.664153
455.273010	0.657416
455.964996	0.649724
456.660004	0.641579
457.359009	0.639065
458.062988	0.626495
458.769989	0.619407
459.480988	0.608597
460.196991	0.604826
460.915985	0.594067
461.640015	0.594419
462.368988	0.592358
463.101990	0.596983
463.838989	0.591704
464.580994	0.590095
465.328003	0.582101
466.079987	0.585922
466.835999	0.578130
467.597992	0.578331
468.364990	0.573403
469.136993	0.582252
469.914001	0.582504
470.696991	0.582051
471.484985	0.581699
472.278992	0.583057
473.079010	0.579990
473.885010	0.582051
474.696991	0.583861
475.515015	0.589693
476.338989	0.590246
477.170013	0.596028
478.007996	0.594620
478.851990	0.601659
479.703003	0.604675
480.559998	0.602061
481.424988	0.603519
482.298004	0.605832
483.177002	0.607541
484.063995	0.607139
484.959015	0.606737
485.862000	0.604726
486.773010	0.601307
487.691986	0.602463
488.619995	0.601810
489.554993	0.605329
490.500000	0.609602
491.453003	0.614881
492.415985	0.619255
493.388000	0.615736
494.368988	0.614479
495.359009	0.622876
496.359985	0.623329
497.369995	0.618250
498.390991	0.614881
499.420990	0.613122
500.463013	0.613021
501.515015	0.616339
502.578003	0.619055
503.652008	0.616842
504.737000	0.620110
505.834015	0.623429
506.942993	0.626144
508.062988	0.627300
509.196014	0.626898
510.341003	0.624334
511.498993	0.623076
512.669006	0.632781
513.853027	0.632580
515.049011	0.630569
516.260010	0.628558
517.484009	0.624786
518.721985	0.624484
519.973999	0.620462
521.239990	0.618602
522.521973	0.613172
523.817993	0.610306
525.129028	0.606536
526.455994	0.601558
527.797974	0.594620
529.156982	0.586978
530.531006	0.577275
531.921997	0.571744
533.330017	0.555002
534.755005	0.554349
536.197021	0.554198
537.656006	0.546606
539.132996	0.534489
540.629028	0.523730
542.142029	0.522323
543.674988	0.516340
545.226013	0.502966
546.796021	0.502916
548.385986	0.509653
549.994995	0.501810
551.625000	0.494922
553.275024	0.491604
554.945984	0.489442
556.637024	0.464757
558.349976	0.429462
560.083984	0.434439
561.841003	0.455154
563.619019	0.459075
565.419983	0.450981
567.244019	0.444445
569.091003	0.447461
570.960999	0.452439
572.854980	0.447763
574.773010	0.451383
576.716003	0.452338
578.682983	0.453847
580.676025	0.449322
582.693970	0.443691
584.737000	0.431724
586.807007	0.421066
588.903015	0.422373
591.026001	0.437607
593.176025	0.436099
595.354004	0.446607
597.559021	0.461639
599.793030	0.475717
602.054993	0.476923
604.346985	0.490347
606.666992	0.486325
609.017029	0.489945
611.398010	0.495375
613.807983	0.510206
616.250000	0.533685
618.721985	0.548416
621.226013	0.555656
623.762024	0.567219
626.330017	0.582051
628.931030	0.596229
631.565002	0.604474
634.232971	0.612016
636.934021	0.623529
639.669983	0.623479
642.440002	0.622624
645.245972	0.620563
648.085999	0.611312
650.963013	0.597989
653.875977	0.586928
656.825989	0.565761
659.812988	0.517898
662.836975	0.458874
665.898987	0.396682
669.000000	0.370287
